LabVIEW Measurement	
Writer_Version	2
Reader_Version	2
Separator	Tab
Decimal_Separator	.
Multi_Headings	No
X_Columns	One
Time_Pref	Absolute
Operator	admin
Description	Clolumns are: time, Current, Voltage, Power, Battery Temp, and Chamber Temp
Date	2024/08/16
Time	13:06:06.104549407958984375
***End_of_Header***	
	
Channels	6						
Samples	1	1	1	1	1	1	
Date	2024/09/05	2024/09/05	2024/09/05	2024/09/05	2024/09/05	2024/09/05	
Time	08:20:42.0467329025268554688	08:20:42.0537309646606445313	08:20:42.0610032081604003906	08:20:42.024707794189453125	08:20:42.024707794189453125	08:20:42.024707794189453125	
X_Dimension	Time	Time	Time	Time	Time	Time	
X0	0.0000000000000000E+0	0.0000000000000000E+0	0.0000000000000000E+0	0.0000000000000000E+0	0.0000000000000000E+0	0.0000000000000000E+0	
Delta_X	1.000000	1.000000	1.000000	1.000000	1.000000	1.000000	
***End_of_Header***							
X_Value	Untitled	Untitled 1	Untitled 2	Untitled 3	Untitled 4	Untitled 5	Comment
0.000000	0.017997	4.100300	0.073707	20.920172	0.000920	20.656540
0.994711	-3.011400	3.928900	-11.831000	20.924193	0.000916	20.682376
1.996888	-2.988300	3.922100	-11.720000	20.947269	0.000918	20.689808
2.994462	-2.985200	3.917400	-11.693000	20.934019	0.000917	20.684142
3.995687	-2.982000	3.914800	-11.672000	20.930619	0.000917	20.678845
4.996593	-2.982300	3.911500	-11.663000	20.926082	0.000917	20.680946
5.997961	-2.984800	3.908200	-11.664000	20.939046	0.000913	20.687275
7.000706	-3.003800	3.904700	-11.727000	20.940845	0.000914	20.696660
7.999847	-2.996700	3.902500	-11.693000	20.925968	0.000913	20.692687
8.997530	-3.013300	3.902500	-11.759000	20.946003	0.000915	20.673842
9.997563	-3.014800	3.899300	-11.755000	20.942529	0.000910	20.680326
10.998338	-2.998500	3.897700	-11.686000	20.929230	0.000909	20.688362
11.999078	-3.040200	3.894600	-11.839000	20.939260	0.000910	20.698394
12.998370	-3.001400	3.893900	-11.686000	20.947246	0.000912	20.700692
14.004637	-3.017400	3.892800	-11.745000	20.952052	0.000909	20.705499
15.003545	-3.014200	3.890300	-11.725000	20.945071	0.000907	20.673859
15.999250	-2.995900	3.891100	-11.656000	20.973010	0.000909	20.678568
17.001110	-3.015300	3.890300	-11.729000	20.972487	0.000907	20.694642
18.000594	-2.999200	3.889000	-11.663000	20.974514	0.000907	20.693824
18.999736	-3.002300	3.887500	-11.671000	20.983865	0.000906	20.700332
20.002849	-2.981900	3.888100	-11.593000	21.004275	0.000904	20.688502
21.001860	-3.000300	3.886800	-11.660000	21.017647	0.000904	20.684807
22.001186	-3.001200	3.885800	-11.661000	21.014304	0.000905	20.682411
23.002490	-2.995900	3.885300	-11.639000	21.001831	0.000904	20.683212
24.002971	-2.998200	3.882900	-11.640000	21.004675	0.000905	20.698386
25.009328	-2.996800	3.881900	-11.632000	21.027005	0.000905	20.693694
26.004146	-3.012000	3.881800	-11.691000	21.031149	0.000903	20.699735
27.008753	-3.013600	3.880800	-11.694000	21.023515	0.000904	20.701583
28.002651	-2.995500	3.880800	-11.624000	21.038570	0.000901	20.684871
29.003503	-3.018900	3.880400	-11.714000	21.047471	0.000904	20.720330
30.008123	-3.003200	3.879000	-11.648000	21.047250	0.000903	20.689286
31.005016	-3.033600	3.877800	-11.762000	21.045902	0.000904	20.708802
32.007654	-3.014400	3.877200	-11.686000	21.057230	0.000902	20.701640
33.009626	-2.971200	3.878600	-11.522000	21.077712	0.000900	20.720231
34.008423	-2.993800	3.876500	-11.602000	21.078864	0.000901	20.721858
35.008413	-2.999700	3.876200	-11.626000	21.079011	0.000902	20.713944
36.009120	-2.980600	3.877100	-11.554000	21.075848	0.000901	20.715996
37.008299	-2.993900	3.876000	-11.604000	21.089072	0.000902	20.694608
38.006013	-3.006800	3.873800	-11.647000	21.091115	0.000900	20.706611
39.008990	-2.993100	3.875600	-11.598000	21.111024	0.000898	20.699023
40.004925	-3.015800	3.873800	-11.682000	21.110273	0.000899	20.694952
41.006269	-2.990100	3.873700	-11.582000	21.123325	0.000900	20.710854
42.009838	-2.990400	3.872900	-11.581000	21.143462	0.000899	20.702547
43.006745	-2.994400	3.873300	-11.598000	21.130165	0.000899	20.690193
44.008494	-3.009700	3.873000	-11.656000	21.130435	0.000900	20.704215
45.009473	-3.008100	3.872900	-11.649000	21.146421	0.000897	20.712620
46.009986	-2.995100	3.870400	-11.591000	21.162349	0.000897	20.722389
47.015382	-3.016400	3.870400	-11.673000	21.156358	0.000898	20.726829
48.008346	-3.009900	3.869900	-11.647000	21.162373	0.000898	20.708662
49.009425	-2.995200	3.872600	-11.598000	21.168380	0.000899	20.719888
50.013998	-3.019300	3.870000	-11.683000	21.189612	0.000897	20.712203
51.009464	-2.999300	3.869400	-11.604000	21.188386	0.000897	20.719512
52.012180	-2.980700	3.869900	-11.533000	21.194221	0.000896	20.713020
53.013608	-3.028300	3.867400	-11.710000	21.203473	0.000895	20.724646
54.011244	-3.026600	3.868700	-11.707000	21.223486	0.000896	20.714320
55.015503	-3.014400	3.867800	-11.658000	21.213778	0.000896	20.708401
56.018683	-2.981700	3.870400	-11.538000	21.213394	0.000894	20.704698
57.011062	-2.973000	3.869800	-11.503000	21.218264	0.000895	20.707674
58.011359	-2.989000	3.868400	-11.561000	21.227074	0.000893	20.710797
59.014150	-2.995100	3.866400	-11.579000	21.237795	0.000895	20.713937
60.010593	-2.993300	3.867400	-11.574000	21.262614	0.000893	20.717428
61.014569	-3.024900	3.866300	-11.693000	21.253012	0.000892	20.724892
62.015302	-3.006200	3.865200	-11.619000	21.276285	0.000894	20.727312
63.012895	-3.005700	3.867200	-11.623000	21.285192	0.000893	20.715833
64.013576	-3.006200	3.864100	-11.614000	21.295987	0.000892	20.727108
65.015683	-2.973100	3.864800	-11.488000	21.305572	0.000894	20.714411
66.012417	-3.008500	3.864300	-11.625000	21.295537	0.000894	20.728081
67.013341	-2.995500	3.864500	-11.574000	21.289670	0.000896	20.728375
68.015249	-3.020300	3.863800	-11.668000	21.310001	0.000893	20.719791
69.012527	-3.006000	3.863800	-11.613000	21.325241	0.000892	20.730297
70.015613	-2.994500	3.863600	-11.568000	21.324963	0.000895	20.718164
71.017557	-3.016000	3.864900	-11.656000	21.344493	0.000891	20.713995
72.016868	-2.989400	3.864000	-11.549000	21.335390	0.000893	20.724803
73.015538	-2.999400	3.864200	-11.590000	21.352476	0.000892	20.717240
74.018954	-3.011400	3.862600	-11.631000	21.362045	0.000893	20.723969
75.018749	-2.997600	3.863700	-11.579000	21.368279	0.000892	20.733527
76.018479	-2.989500	3.862900	-11.547000	21.374718	0.000893	20.749926
77.017696	-2.987400	3.862800	-11.539000	21.388535	0.000894	20.725817
78.028655	-2.959000	3.863100	-11.429000	21.387661	0.000893	20.728736
79.017187	-3.010200	3.860400	-11.620000	21.390880	0.000896	20.725318
80.017927	-2.996100	3.862900	-11.571000	21.395292	0.000893	20.722146
81.020056	-2.978700	3.861800	-11.501000	21.429357	0.000893	20.721141
82.017439	-2.979400	3.862500	-11.507000	21.409134	0.000893	20.740263
83.019585	-2.981400	3.860900	-11.509000	21.429936	0.000893	20.722670
84.021177	-2.991200	3.860200	-11.546000	21.440117	0.000894	20.740917
85.019529	-3.014600	3.859300	-11.633000	21.453076	0.000895	20.735391
86.021252	-3.013300	3.858600	-11.626000	21.428311	0.000893	20.743329
87.022748	-3.006300	3.859400	-11.601000	21.480757	0.000891	20.742226
88.020324	-3.013700	3.858700	-11.627000	21.456842	0.000895	20.741057
89.020537	-3.013800	3.858800	-11.628000	21.483004	0.000893	20.743526
90.020438	-3.007000	3.858600	-11.602000	21.462880	0.000894	20.764643
91.022309	-3.013400	3.857700	-11.622000	21.484499	0.000894	20.739806
92.022131	-2.990000	3.859200	-11.538000	21.483151	0.000894	20.744621
93.024453	-2.975900	3.859100	-11.482000	21.497244	0.000893	20.724109
94.025050	-3.002000	3.857300	-11.578000	21.508796	0.000892	20.721443
95.024850	-3.014300	3.857000	-11.624000	21.517294	0.000895	20.740378
96.025186	-3.002800	3.856100	-11.578000	21.520709	0.000894	20.733838
97.031798	-3.010000	3.857700	-11.610000	21.529941	0.000896	20.741654
98.031330	-2.976500	3.857900	-11.481000	21.536403	0.000894	20.754759
99.026785	-3.010500	3.854900	-11.603000	21.530161	0.000894	20.766057
100.026099	-3.005800	3.855600	-11.589000	21.551541	0.000895	20.756631
101.025757	-3.004200	3.857400	-11.588000	21.557644	0.000894	20.749936
102.026258	-2.991100	3.855200	-11.530000	21.549164	0.000895	20.747140
103.027046	-2.986200	3.855600	-11.512000	21.564801	0.000896	20.759468
104.025566	-3.011200	3.854700	-11.606000	21.566198	0.000896	20.736209
105.027406	-3.012000	3.855400	-11.611000	21.589644	0.000896	20.753982
106.028666	-3.017400	3.855500	-11.632000	21.597120	0.000896	20.745815
107.027669	-3.003000	3.855000	-11.576000	21.606123	0.000894	20.759092
108.028262	-2.999800	3.854600	-11.561000	21.618442	0.000897	20.741548
109.029986	-3.018200	3.853600	-11.630000	21.608818	0.000895	20.748513
110.030693	-3.002700	3.852800	-11.568000	21.617175	0.000898	20.747393
111.034991	-3.001800	3.853100	-11.565000	21.625459	0.000895	20.733396
112.031455	-3.019100	3.853800	-11.634000	21.657368	0.000895	20.747786
113.034294	-3.013700	3.853700	-11.613000	21.647997	0.000895	20.772548
114.031213	-2.996600	3.853200	-11.546000	21.651674	0.000897	20.762003
115.031387	-2.997800	3.853900	-11.551000	21.657515	0.000899	20.772116
116.030000	-3.001300	3.852100	-11.561000	21.668952	0.000897	20.768388
117.032419	-3.003900	3.853600	-11.575000	21.660775	0.000897	20.762101
118.035869	-3.000400	3.851700	-11.556000	21.664965	0.000899	20.761079
119.033580	-2.996600	3.852100	-11.542000	21.658030	0.000898	20.761725
120.033405	-2.993400	3.853200	-11.533000	21.663880	0.000898	20.762838
121.032705	-3.001100	3.851900	-11.559000	21.692928	0.000898	20.756821
122.037575	-2.987900	3.850400	-11.504000	21.708514	0.000898	20.742547
123.035653	-3.001400	3.853000	-11.562000	21.688370	0.000898	20.741827
124.035408	-2.984700	3.851600	-11.494000	21.710630	0.000899	20.770269
125.039579	-3.004100	3.851300	-11.568000	21.723267	0.000900	20.753044
126.035930	-2.981300	3.851100	-11.480000	21.730823	0.000898	20.751597
127.035248	-3.000500	3.850900	-11.552000	21.735609	0.000899	20.757336
128.035849	-3.001800	3.849800	-11.554000	21.758914	0.000898	20.765488
129.040097	-3.003000	3.851200	-11.564000	21.734082	0.000900	20.765766
130.038907	-3.009300	3.850400	-11.585000	21.740266	0.000900	20.769109
131.036437	-2.998800	3.848700	-11.540000	21.774899	0.000900	20.767262
132.041226	-3.000200	3.849700	-11.547000	21.761553	0.000901	20.774767
133.038957	-2.998100	3.848400	-11.537000	21.807923	0.000901	20.761434
134.037402	-3.007200	3.849700	-11.576000	21.778208	0.000900	20.773418
135.043150	-3.002800	3.849100	-11.557000	21.775088	0.000902	20.772192
136.037188	-2.997000	3.848200	-11.533000	21.782260	0.000902	20.771310
137.038829	-3.005300	3.847800	-11.562000	21.789398	0.000903	20.768971
138.040336	-2.999900	3.848900	-11.545000	21.815667	0.000903	20.757804
139.039110	-3.007200	3.848200	-11.572000	21.808888	0.000901	20.783262
140.038286	-2.987700	3.848400	-11.496000	21.797461	0.000902	20.763290
141.042522	-3.014000	3.847200	-11.594000	21.828009	0.000904	20.773476
142.040020	-3.007400	3.846500	-11.566000	21.857070	0.000901	20.775063
143.042005	-2.989800	3.847500	-11.502000	21.863130	0.000904	20.775913
144.045221	-3.002400	3.846800	-11.548000	21.865548	0.000904	20.780704
145.045774	-3.006800	3.845900	-11.563000	21.881622	0.000905	20.759334
146.041922	-3.001400	3.846100	-11.543000	21.893808	0.000905	20.799033
147.045647	-2.993900	3.846900	-11.516000	21.890050	0.000904	20.779151
148.041857	-3.002600	3.845600	-11.544000	21.907472	0.000906	20.802279
149.041523	-3.007200	3.845700	-11.564000	21.885045	0.000906	20.777934
150.040764	-2.997500	3.846300	-11.529000	21.918408	0.000904	20.787147
151.042744	-2.991600	3.845900	-11.503000	21.935134	0.000907	20.795829
152.042998	-3.012900	3.843600	-11.579000	21.929990	0.000905	20.790680
153.043297	-3.004100	3.845200	-11.550000	21.930088	0.000906	20.764225
154.042978	-3.006900	3.844800	-11.558000	21.923848	0.000907	20.800654
155.044451	-3.002400	3.845000	-11.543000	21.933200	0.000907	20.794841
156.043717	-2.987500	3.844800	-11.485000	21.928765	0.000909	20.804152
157.045053	-3.005900	3.843700	-11.553000	21.936761	0.000907	20.796983
158.047287	-2.994400	3.843800	-11.508000	21.948382	0.000909	20.799607
159.045475	-3.018700	3.843400	-11.600000	21.938721	0.000908	20.794679
160.045550	-3.008400	3.843800	-11.562000	21.964349	0.000911	20.780503
161.049873	-2.979900	3.844400	-11.455000	21.978493	0.000911	20.786601
162.045464	-2.991200	3.844100	-11.497000	21.949984	0.000911	20.818280
163.046723	-2.988400	3.842900	-11.482000	21.948433	0.000913	20.799184
164.051457	-3.002200	3.842400	-11.533000	21.980446	0.000910	20.786185
165.047680	-3.024200	3.842400	-11.619000	21.982962	0.000912	20.811463
166.050317	-3.011000	3.843600	-11.573000	21.981435	0.000912	20.819891
167.049086	-2.993700	3.842800	-11.503000	21.983509	0.000913	20.792096
168.049103	-3.012800	3.843100	-11.577000	21.998838	0.000913	20.801751
169.051363	-2.989200	3.842900	-11.484000	22.006212	0.000913	20.811978
170.050124	-2.997100	3.841400	-11.512000	22.017408	0.000912	20.783831
171.048185	-3.000200	3.842000	-11.524000	22.034028	0.000916	20.799046
172.048818	-2.995300	3.841300	-11.506000	22.079415	0.000914	20.799439
173.051528	-2.979200	3.842100	-11.445000	22.046776	0.000916	20.782411
174.047485	-2.991200	3.840800	-11.488000	22.071577	0.000915	20.811506
175.050725	-3.020400	3.840600	-11.600000	22.066440	0.000914	20.799726
176.049098	-2.997000	3.840800	-11.510000	22.087876	0.000915	20.797952
177.050789	-2.997700	3.838900	-11.507000	22.090767	0.000917	20.820760
178.051010	-2.989200	3.839100	-11.475000	22.077621	0.000918	20.813289
179.050302	-2.993700	3.841400	-11.499000	22.101832	0.000916	20.813346
180.051817	-2.986200	3.839500	-11.464000	22.110406	0.000917	20.804386
181.049843	-2.981700	3.839100	-11.445000	22.113265	0.000917	20.811989
182.049519	-3.007400	3.839200	-11.544000	22.123014	0.000917	20.801836
183.055207	-2.992600	3.838000	-11.485000	22.130960	0.000920	20.814532
184.051338	-3.021400	3.838100	-11.595000	22.133173	0.000918	20.825282
185.052606	-2.986200	3.837700	-11.458000	22.129563	0.000918	20.804125
186.056358	-2.991800	3.839300	-11.485000	22.154191	0.000920	20.822143
187.056534	-2.999000	3.837100	-11.506000	22.178017	0.000921	20.838885
188.053208	-3.000500	3.837600	-11.514000	22.165181	0.000919	20.823663
189.060223	-2.995200	3.837000	-11.491000	22.186166	0.000920	20.819069
190.054969	-3.012200	3.836900	-11.555000	22.180606	0.000921	20.815873
191.056894	-2.989400	3.836500	-11.469000	22.214254	0.000919	20.818268
192.055853	-3.004000	3.837000	-11.526000	22.211119	0.000922	20.819396
193.056657	-2.999000	3.835900	-11.503000	22.225824	0.000921	20.803774
194.055295	-2.993400	3.836200	-11.482000	22.231735	0.000922	20.810640
195.057110	-2.996300	3.836200	-11.492000	22.227350	0.000922	20.838966
196.061126	-2.986500	3.836400	-11.456000	22.229269	0.000922	20.847051
197.055923	-3.006400	3.835100	-11.528000	22.231882	0.000923	20.833073
198.055800	-3.002300	3.834600	-11.512000	22.249754	0.000923	20.825364
199.058301	-3.018400	3.835800	-11.577000	22.233384	0.000924	20.836947
200.062077	-2.985300	3.833900	-11.443000	22.274860	0.000925	20.815414
201.058794	-3.002600	3.835600	-11.515000	22.280437	0.000925	20.851817
202.059653	-2.986800	3.834100	-11.451000	22.277081	0.000924	20.825698
203.057705	-2.990500	3.835400	-11.469000	22.303518	0.000927	20.841263
204.057141	-3.016800	3.833800	-11.565000	22.310302	0.000926	20.838099
205.059512	-3.000300	3.833600	-11.501000	22.321299	0.000925	20.812601
206.059929	-3.010600	3.833600	-11.541000	22.318482	0.000927	20.815945
207.060566	-3.016100	3.832700	-11.560000	22.307640	0.000928	20.825951
208.061296	-3.006900	3.834100	-11.527000	22.311853	0.000929	20.806936
209.064957	-3.013000	3.833200	-11.548000	22.302691	0.000929	20.805824
210.064092	-3.014400	3.832700	-11.551000	22.331626	0.000928	20.807769
211.063013	-2.993400	3.832700	-11.470000	22.316473	0.000930	20.815356
212.065135	-2.978000	3.833200	-11.413000	22.342713	0.000928	20.810336
213.062518	-2.999600	3.832600	-11.494000	22.352036	0.000930	20.804499
214.063330	-2.994800	3.831000	-11.472000	22.351391	0.000930	20.804802
215.063904	-2.994100	3.831900	-11.472000	22.357946	0.000929	20.804728
216.067980	-3.000100	3.832600	-11.497000	22.365604	0.000929	20.809077
217.073607	-3.007000	3.830700	-11.517000	22.351545	0.000932	20.815388
218.065537	-2.984100	3.831500	-11.431000	22.353839	0.000930	20.811995
219.069238	-2.999600	3.831600	-11.492000	22.342034	0.000932	20.771250
220.070287	-3.012600	3.829800	-11.537000	22.367979	0.000933	20.828050
221.074111	-2.986500	3.831200	-11.441000	22.378273	0.000932	20.802798
222.070993	-3.013300	3.829100	-11.537000	22.379392	0.000935	20.799650
223.069336	-3.012700	3.830900	-11.539000	22.400763	0.000934	20.811094
224.065691	-2.989800	3.829900	-11.449000	22.396379	0.000936	20.803385
225.069467	-2.969400	3.830500	-11.374000	22.378305	0.000935	20.805200
226.067929	-3.008500	3.830200	-11.522000	22.375611	0.000937	20.794442
227.078286	-3.019000	3.829300	-11.559000	22.380778	0.000935	20.797246
228.067470	-3.010400	3.828100	-11.522000	22.419759	0.000937	20.802142
229.071440	-2.968900	3.830400	-11.371000	22.408224	0.000936	20.789642
230.070677	-2.985300	3.827700	-11.426000	22.428371	0.000939	20.782791
231.070747	-3.004100	3.827700	-11.498000	22.438331	0.000938	20.804145
232.069530	-2.993300	3.826100	-11.452000	22.423938	0.000937	20.778826
233.070893	-2.997300	3.827100	-11.470000	22.442330	0.000938	20.806253
234.071455	-3.012800	3.826100	-11.526000	22.433072	0.000938	20.787973
235.073328	-2.991400	3.827500	-11.448000	22.450705	0.000939	20.772915
236.072263	-3.010700	3.826100	-11.518000	22.473194	0.000941	20.763194
237.074111	-3.028100	3.826400	-11.585000	22.432648	0.000942	20.788022
238.078822	-3.010400	3.826600	-11.520000	22.446761	0.000941	20.783664
239.072135	-2.977800	3.827500	-11.397000	22.423789	0.000941	20.784367
240.075610	-3.009400	3.825700	-11.511000	22.460418	0.000940	20.785487
241.077780	-3.003300	3.827300	-11.493000	22.471610	0.000942	20.787212
242.077456	-3.009200	3.825200	-11.510000	22.463291	0.000941	20.763234
243.074840	-3.016200	3.825000	-11.536000	22.469381	0.000945	20.782134
244.076424	-2.999400	3.825900	-11.473000	22.492906	0.000944	20.764917
245.075210	-3.000300	3.825400	-11.476000	22.509999	0.000946	20.780139
246.074965	-3.007400	3.825900	-11.504000	22.485682	0.000943	20.768587
247.079445	-2.994200	3.825400	-11.453000	22.498359	0.000945	20.765637
248.076890	-2.993900	3.825100	-11.451000	22.517982	0.000946	20.792401
249.074993	-3.027300	3.822200	-11.569000	22.529703	0.000945	20.781381
250.084632	-3.009100	3.823900	-11.506000	22.533834	0.000946	20.760387
251.076046	-2.980800	3.826400	-11.405000	22.526887	0.000946	20.777138
252.077669	-3.016000	3.822200	-11.527000	22.526414	0.000949	20.792311
253.078930	-2.994900	3.822900	-11.447000	22.510121	0.000948	20.768881
254.075679	-2.987900	3.823200	-11.422000	22.514716	0.000950	20.763525
255.075976	-3.002200	3.824600	-11.481000	22.527344	0.000952	20.769060
256.077250	-2.998900	3.822500	-11.462000	22.516666	0.000949	20.756469
257.077238	-3.012500	3.822600	-11.515000	22.555961	0.000949	20.786816
258.092280	-3.021200	3.821300	-11.544000	22.551708	0.000949	20.770702
259.077116	-2.986000	3.822500	-11.413000	22.547692	0.000949	20.766206
260.076567	-3.027600	3.821600	-11.569000	22.568253	0.000951	20.759772
261.076637	-3.001000	3.821200	-11.466000	22.575632	0.000952	20.740608
262.077085	-3.019700	3.819900	-11.534000	22.576905	0.000951	20.758006
263.076936	-2.978700	3.821400	-11.381000	22.574848	0.000955	20.769696
264.079027	-2.995200	3.821500	-11.444000	22.579582	0.000952	20.764480
265.078748	-2.996500	3.820600	-11.447000	22.575729	0.000953	20.745447
266.078915	-2.993100	3.820900	-11.435000	22.563273	0.000954	20.766637
267.080568	-2.988800	3.821200	-11.419000	22.556995	0.000955	20.764144
268.077646	-3.007400	3.818800	-11.484000	22.595016	0.000955	20.755756
269.077120	-2.993800	3.820300	-11.436000	22.599905	0.000957	20.762549
270.082924	-3.010500	3.820100	-11.499000	22.616857	0.000954	20.748708
271.079117	-3.007800	3.820300	-11.490000	22.630186	0.000957	20.751153
272.077061	-3.008500	3.818900	-11.489000	22.642526	0.000956	20.767307
