LabVIEW Measurement	
Writer_Version	2
Reader_Version	2
Separator	Tab
Decimal_Separator	.
Multi_Headings	No
X_Columns	One
Time_Pref	Absolute
Operator	admin
Description	Clolumns are: time, Current, Voltage, Power, Battery Temp, and Chamber Temp
Date	2024/08/16
Time	13:06:06.104549407958984375
***End_of_Header***	
	
Channels	6						
Samples	1	1	1	1	1	1	
Date	2024/09/15	2024/09/15	2024/09/15	2024/09/15	2024/09/15	2024/09/15	
Time	18:40:41.9939446449279785157	18:40:42.0027832984924316406	18:40:42.01277923583984375	18:40:41.9726343154907226563	18:40:41.9726343154907226563	18:40:41.9726343154907226563	
X_Dimension	Time	Time	Time	Time	Time	Time	
X0	0.0000000000000000E+0	0.0000000000000000E+0	0.0000000000000000E+0	0.0000000000000000E+0	0.0000000000000000E+0	0.0000000000000000E+0	
Delta_X	1.000000	1.000000	1.000000	1.000000	1.000000	1.000000	
***End_of_Header***							
X_Value	Untitled	Untitled 1	Untitled 2	Untitled 3	Untitled 4	Untitled 5	Comment
0.000000	0.070215	4.091600	0.289030	21.036427	0.000943	20.851531
1.001137	-2.992900	3.911600	-11.705000	21.040218	0.000944	20.826874
1.997854	-2.996000	3.903900	-11.695000	21.033032	0.000944	20.830118
2.998017	-3.005000	3.899800	-11.718000	21.042935	0.000942	20.829592
3.997838	-2.984000	3.896000	-11.624000	21.055708	0.000939	20.857539
4.999354	-3.018800	3.892400	-11.748000	21.042759	0.000940	20.843166
5.998458	-3.005600	3.888800	-11.687000	21.051290	0.000940	20.843638
7.003676	-2.995300	3.886900	-11.642000	21.041558	0.000938	20.847180
7.996564	-3.001800	3.884400	-11.660000	21.044477	0.000936	20.856737
9.000095	-2.995500	3.884200	-11.633000	21.041184	0.000937	20.842538
9.999286	-2.998700	3.881900	-11.640000	21.066207	0.000939	20.846704
11.000156	-2.985200	3.880300	-11.582000	21.058796	0.000939	20.847352
12.008739	-3.004100	3.877700	-11.648000	21.074836	0.000937	20.845852
13.001625	-2.997200	3.874900	-11.613000	21.065331	0.000938	20.843457
14.005915	-2.997500	3.874800	-11.613000	21.084392	0.000935	20.831703
15.001231	-3.014700	3.873800	-11.677000	21.079848	0.000934	20.836641
16.002037	-3.008000	3.871600	-11.645000	21.073708	0.000934	20.809163
16.999106	-3.016400	3.869400	-11.670000	21.076426	0.000934	20.826580
18.003239	-2.992700	3.869600	-11.580000	21.074478	0.000935	20.839804
18.999174	-2.981000	3.871400	-11.539000	21.082283	0.000933	20.825327
20.008395	-3.004000	3.867500	-11.617000	21.096179	0.000934	20.842071
21.009390	-3.020600	3.866800	-11.679000	21.075893	0.000933	20.826521
22.002917	-2.975500	3.869100	-11.511000	21.106904	0.000932	20.820556
23.004071	-3.021400	3.864900	-11.677000	21.123766	0.000931	20.858284
24.002416	-2.972500	3.864500	-11.485000	21.123987	0.000933	20.832902
25.010852	-2.984400	3.865200	-11.534000	21.124508	0.000929	20.832949
26.013462	-2.986600	3.864500	-11.540000	21.112981	0.000928	20.840859
27.007413	-3.003600	3.862000	-11.598000	21.128172	0.000928	20.812433
28.001478	-3.000700	3.860000	-11.581000	21.149649	0.000929	20.823485
29.005181	-2.982400	3.861300	-11.515000	21.137521	0.000931	20.816095
30.008355	-2.991600	3.862000	-11.551000	21.160249	0.000926	20.833614
31.002055	-2.995600	3.859200	-11.560000	21.153536	0.000927	20.826425
32.005663	-2.988400	3.860900	-11.537000	21.148670	0.000927	20.831988
33.014817	-3.008900	3.859900	-11.613000	21.172244	0.000927	20.841819
34.009183	-3.009500	3.858400	-11.610000	21.193224	0.000926	20.815865
35.007775	-2.998500	3.858400	-11.568000	21.195817	0.000929	20.829365
36.017164	-3.002000	3.857200	-11.578000	21.208737	0.000927	20.836599
37.013988	-3.002100	3.856800	-11.578000	21.211283	0.000925	20.826818
38.011130	-3.004500	3.855700	-11.583000	21.204248	0.000927	20.828315
39.022142	-2.985900	3.855500	-11.511000	21.231587	0.000927	20.802560
40.009788	-3.002500	3.855500	-11.575000	21.242836	0.000925	20.822822
41.012415	-3.012400	3.854200	-11.610000	21.241218	0.000926	20.816461
42.016555	-2.994300	3.853900	-11.539000	21.229242	0.000925	20.824869
43.021612	-2.996500	3.853100	-11.544000	21.227522	0.000926	20.811769
44.015925	-3.009000	3.853500	-11.595000	21.235427	0.000929	20.800711
45.018043	-3.016800	3.851400	-11.617000	21.236749	0.000926	20.816258
46.012773	-3.025200	3.851400	-11.650000	21.276260	0.000928	20.814059
47.014197	-3.001800	3.852000	-11.562000	21.268153	0.000928	20.814958
48.033426	-2.987200	3.852600	-11.508000	21.308216	0.000928	20.812363
49.016185	-2.998800	3.850900	-11.547000	21.284613	0.000927	20.811510
50.019131	-3.000700	3.850800	-11.554000	21.290874	0.000928	20.815403
51.019767	-2.986300	3.850700	-11.498000	21.296685	0.000927	20.808889
52.014635	-2.992600	3.850700	-11.521000	21.298378	0.000930	20.815798
53.016645	-3.002900	3.850100	-11.561000	21.298579	0.000927	20.842551
54.016011	-3.021400	3.848500	-11.627000	21.296480	0.000927	20.812003
55.013479	-3.004800	3.849300	-11.566000	21.313515	0.000928	20.823829
56.019065	-3.003200	3.849200	-11.559000	21.326935	0.000928	20.824927
57.025738	-2.991200	3.848500	-11.511000	21.321593	0.000929	20.803936
58.013781	-2.996700	3.847400	-11.528000	21.345737	0.000927	20.802486
59.018998	-2.990200	3.848500	-11.506000	21.359253	0.000927	20.815535
60.020196	-2.993000	3.847500	-11.515000	21.347529	0.000927	20.803805
61.020514	-2.997600	3.847100	-11.531000	21.365859	0.000926	20.795591
62.018198	-2.995600	3.846700	-11.521000	21.355432	0.000927	20.793221
63.019558	-3.010900	3.845300	-11.576000	21.348270	0.000928	20.795063
64.032641	-2.998200	3.845800	-11.529000	21.364458	0.000926	20.814104
65.019423	-3.012200	3.844800	-11.580000	21.404163	0.000925	20.795509
66.031473	-2.983700	3.846100	-11.474000	21.396454	0.000924	20.818141
67.016659	-2.997300	3.845400	-11.524000	21.413662	0.000925	20.795529
68.025023	-3.015000	3.843200	-11.587000	21.413161	0.000924	20.795028
69.018550	-2.995500	3.845500	-11.519000	21.423262	0.000926	20.789962
70.027188	-2.996800	3.844100	-11.519000	21.410164	0.000926	20.814315
71.023926	-2.996900	3.842700	-11.515000	21.420064	0.000925	20.806677
72.022800	-2.995300	3.843800	-11.512000	21.427072	0.000924	20.809895
73.025803	-3.000400	3.842900	-11.529000	21.438867	0.000927	20.804153
74.024975	-2.996800	3.842000	-11.512000	21.460116	0.000927	20.815930
75.026111	-2.990000	3.842500	-11.488000	21.453179	0.000927	20.817525
76.020862	-3.009500	3.841700	-11.561000	21.444674	0.000927	20.815179
77.029081	-2.983700	3.844000	-11.469000	21.470388	0.000928	20.837113
78.027077	-3.003600	3.841300	-11.536000	21.480062	0.000929	20.819293
79.027617	-2.985800	3.843300	-11.474000	21.473924	0.000927	20.800350
80.023882	-3.004000	3.840300	-11.535000	21.518667	0.000928	20.797704
81.023660	-3.006300	3.840500	-11.544000	21.517742	0.000928	20.818589
82.025746	-3.018900	3.839100	-11.588000	21.531231	0.000930	20.800319
83.031587	-2.998100	3.840000	-11.512000	21.549409	0.000931	20.805707
84.021440	-3.002000	3.840600	-11.529000	21.543922	0.000930	20.796422
85.025139	-2.990000	3.840200	-11.481000	21.540377	0.000929	20.798091
86.025990	-2.997700	3.839300	-11.508000	21.557682	0.000931	20.801657
87.022430	-2.987900	3.838800	-11.468000	21.565462	0.000931	20.805649
88.026975	-3.016300	3.838700	-11.576000	21.574188	0.000931	20.803949
89.037155	-2.994400	3.837900	-11.491000	21.573063	0.000930	20.790969
90.024386	-3.003100	3.838100	-11.525000	21.578248	0.000931	20.796158
91.024725	-3.008400	3.837900	-11.545000	21.583557	0.000932	20.808583
92.028606	-2.994500	3.837300	-11.490000	21.602434	0.000931	20.807559
93.026479	-2.990500	3.838700	-11.477000	21.590783	0.000932	20.809650
94.029113	-3.016900	3.834700	-11.568000	21.589585	0.000932	20.810822
95.026086	-3.017600	3.835800	-11.574000	21.580554	0.000935	20.799414
96.024549	-3.010400	3.835200	-11.544000	21.608084	0.000932	20.805625
97.030823	-3.011400	3.835100	-11.548000	21.637208	0.000932	20.805847
98.030975	-2.995300	3.835800	-11.488000	21.647655	0.000933	20.800180
99.024188	-3.008600	3.835500	-11.539000	21.645207	0.000934	20.792041
100.031260	-3.003800	3.835600	-11.521000	21.650717	0.000932	20.792340
101.031578	-3.006400	3.835400	-11.530000	21.675676	0.000933	20.808782
102.028244	-3.016900	3.834000	-11.564000	21.665399	0.000929	20.777635
103.028055	-3.004500	3.834600	-11.520000	21.685171	0.000932	20.777981
104.032295	-3.017300	3.833700	-11.567000	21.698633	0.000931	20.785765
105.027614	-3.014700	3.832900	-11.554000	21.716511	0.000929	20.805079
106.040007	-2.988500	3.834400	-11.458000	21.728378	0.000931	20.801783
107.025099	-3.007800	3.832700	-11.527000	21.704537	0.000930	20.790724
108.026089	-2.999800	3.833300	-11.499000	21.740219	0.000933	20.807469
109.026276	-2.977000	3.834500	-11.413000	21.733185	0.000930	20.789998
110.032452	-3.013200	3.832900	-11.548000	21.742935	0.000932	20.799282
111.035870	-3.002700	3.832800	-11.507000	21.740788	0.000932	20.801875
112.030159	-2.999900	3.833800	-11.500000	21.752333	0.000932	20.803946
113.030389	-2.991700	3.832400	-11.464000	21.766318	0.000932	20.801822
114.028268	-2.988900	3.831500	-11.451000	21.798808	0.000933	20.802097
115.030251	-3.017900	3.830600	-11.559000	21.774020	0.000934	20.792935
116.036518	-2.993100	3.831500	-11.467000	21.777537	0.000935	20.796929
117.028822	-3.000200	3.831500	-11.495000	21.806109	0.000935	20.801344
118.033168	-3.013400	3.830800	-11.542000	21.798902	0.000935	20.793656
119.045241	-2.974600	3.832100	-11.398000	21.799699	0.000935	20.783548
120.032259	-2.998500	3.831200	-11.487000	21.783066	0.000936	20.791083
121.037811	-3.001800	3.829600	-11.493000	21.806877	0.000935	20.794052
122.030823	-2.992800	3.830400	-11.461000	21.810069	0.000938	20.805781
123.029502	-2.986600	3.829500	-11.436000	21.805628	0.000938	20.790905
124.039094	-2.990900	3.830000	-11.453000	21.815500	0.000938	20.783716
125.030478	-2.999800	3.830300	-11.489000	21.841504	0.000940	20.778449
126.037461	-3.005100	3.828900	-11.504000	21.851078	0.000940	20.782816
127.035545	-3.005200	3.828100	-11.503000	21.849330	0.000940	20.775851
128.031879	-2.998400	3.828900	-11.479000	21.866357	0.000940	20.791946
129.031800	-3.005400	3.828300	-11.505000	21.876502	0.000941	20.773176
130.035349	-3.017800	3.828000	-11.551000	21.892356	0.000941	20.786201
131.032187	-2.983400	3.828800	-11.422000	21.885151	0.000943	20.778041
132.035475	-2.977600	3.828200	-11.398000	21.886644	0.000941	20.766258
133.036567	-3.006600	3.827900	-11.508000	21.918853	0.000942	20.780955
134.029315	-2.981700	3.827400	-11.410000	21.899455	0.000944	20.774340
135.037826	-3.000500	3.826500	-11.480000	21.921990	0.000944	20.790733
136.036214	-2.995100	3.825600	-11.456000	21.909199	0.000943	20.762756
137.030232	-2.997300	3.825800	-11.467000	21.940636	0.000944	20.772887
138.030262	-2.989300	3.826900	-11.438000	21.945245	0.000944	20.784139
139.036638	-3.015200	3.825300	-11.533000	21.945740	0.000945	20.783687
140.034666	-3.002800	3.826300	-11.488000	21.952446	0.000945	20.786132
141.035793	-3.002900	3.826300	-11.488000	21.969146	0.000945	20.772502
142.036504	-2.981700	3.825100	-11.404000	21.958872	0.000946	20.773124
143.030534	-3.000600	3.824400	-11.474000	21.975174	0.000947	20.789443
144.039781	-2.978800	3.827600	-11.399000	21.964601	0.000947	20.764159
145.037673	-3.001000	3.823700	-11.474000	21.973674	0.000947	20.779880
146.039899	-3.002000	3.824200	-11.479000	21.958961	0.000946	20.776532
147.038671	-3.019900	3.824300	-11.549000	21.973867	0.000947	20.786238
148.035147	-2.998900	3.823400	-11.466000	21.976759	0.000948	20.791029
149.037714	-2.993600	3.824000	-11.446000	21.983086	0.000951	20.767964
150.041624	-2.987200	3.824700	-11.424000	22.020254	0.000948	20.781939
151.037633	-2.989600	3.823200	-11.429000	22.036206	0.000951	20.778467
152.041973	-2.997700	3.823700	-11.461000	22.052606	0.000951	20.777816
153.041420	-2.981900	3.823000	-11.399000	22.042807	0.000952	20.785076
154.035319	-2.984700	3.823100	-11.409000	22.061402	0.000952	20.777138
155.042142	-2.997900	3.822500	-11.458000	22.065612	0.000952	20.779456
156.038680	-3.014900	3.821200	-11.519000	22.089091	0.000952	20.795849
157.036903	-3.003700	3.821700	-11.478000	22.087294	0.000954	20.776032
158.042278	-3.024300	3.821700	-11.554000	22.086768	0.000953	20.787833
159.035541	-3.004500	3.820700	-11.478000	22.087215	0.000954	20.777375
160.039525	-3.014400	3.821200	-11.518000	22.101521	0.000954	20.776051
161.043502	-3.010300	3.820100	-11.498000	22.095686	0.000954	20.787752
162.037246	-3.013900	3.819400	-11.510000	22.109118	0.000955	20.773699
163.039564	-2.980800	3.819900	-11.385000	22.136137	0.000958	20.772774
164.041123	-2.995100	3.820200	-11.440000	22.125191	0.000956	20.790739
165.040259	-2.997500	3.819000	-11.447000	22.155748	0.000957	20.794779
166.037828	-2.989300	3.820100	-11.418000	22.146573	0.000958	20.769946
167.046905	-3.005500	3.818900	-11.476000	22.150759	0.000957	20.772715
168.042799	-2.992900	3.819400	-11.430000	22.153273	0.000958	20.787086
169.042264	-2.986700	3.819200	-11.406000	22.165087	0.000959	20.778999
170.053946	-3.012900	3.817500	-11.500000	22.159126	0.000962	20.782988
171.049956	-2.995800	3.818200	-11.437000	22.157406	0.000961	20.769885
172.044234	-2.988400	3.819000	-11.411000	22.159996	0.000958	20.774850
173.047261	-3.008700	3.817600	-11.485000	22.181754	0.000958	20.791419
174.048115	-3.014000	3.818000	-11.507000	22.193268	0.000959	20.779713
175.043957	-3.035100	3.816500	-11.583000	22.207348	0.000962	20.785275
176.046040	-2.981200	3.818100	-11.380000	22.192715	0.000962	20.789117
177.044203	-2.997400	3.816200	-11.437000	22.236953	0.000961	20.781252
178.044463	-2.983500	3.817600	-11.388000	22.235506	0.000962	20.791183
179.047602	-3.005200	3.815500	-11.466000	22.236303	0.000962	20.768273
180.045302	-2.987700	3.816700	-11.402000	22.227527	0.000962	20.785565
181.042808	-2.995300	3.816700	-11.431000	22.260898	0.000963	20.784365
182.052785	-3.004700	3.814800	-11.460000	22.256485	0.000964	20.779946
183.047322	-3.007200	3.814300	-11.469000	22.241480	0.000966	20.783414
184.048405	-2.985700	3.816900	-11.394000	22.249031	0.000961	20.783388
185.046898	-3.001500	3.815200	-11.449000	22.261466	0.000962	20.787778
186.046609	-3.007400	3.813800	-11.468000	22.263483	0.000963	20.798807
187.047505	-3.004000	3.813900	-11.455000	22.235168	0.000963	20.790844
188.047167	-2.996300	3.814900	-11.429000	22.230531	0.000963	20.782883
189.050550	-2.989700	3.814200	-11.402000	22.237009	0.000965	20.795059
190.046185	-2.974700	3.813500	-11.343000	22.241570	0.000964	20.783978
191.054435	-3.013100	3.813200	-11.488000	22.234041	0.000962	20.773595
192.051771	-2.979400	3.813000	-11.360000	22.280224	0.000965	20.781904
193.046421	-3.025500	3.811900	-11.531000	22.298318	0.000964	20.784375
194.053966	-2.993300	3.813100	-11.413000	22.304746	0.000966	20.795078
195.049355	-3.003000	3.811000	-11.442000	22.300783	0.000966	20.802965
196.048017	-3.006300	3.812000	-11.460000	22.307287	0.000965	20.793356
197.051420	-3.001500	3.811800	-11.439000	22.306017	0.000967	20.779282
198.049276	-3.003400	3.810900	-11.445000	22.323735	0.000968	20.781850
199.047625	-2.992800	3.812200	-11.408000	22.321642	0.000970	20.783074
200.051679	-2.997600	3.811200	-11.423000	22.348259	0.000972	20.802614
201.048186	-3.007200	3.812200	-11.463000	22.352371	0.000968	20.788240
202.050387	-3.020700	3.809600	-11.507000	22.344146	0.000971	20.806556
203.058016	-3.008700	3.810700	-11.464000	22.360194	0.000973	20.799393
204.051012	-3.018800	3.809800	-11.500000	22.354637	0.000970	20.794302
205.050954	-3.013300	3.809900	-11.479000	22.350274	0.000972	20.800365
206.052651	-2.992100	3.810300	-11.400000	22.377736	0.000973	20.792303
207.060874	-3.004000	3.809800	-11.444000	22.383095	0.000973	20.801462
208.052233	-2.995200	3.809200	-11.408000	22.390695	0.000974	20.796744
209.053949	-2.986800	3.809400	-11.377000	22.413397	0.000974	20.785814
210.049443	-3.007300	3.807800	-11.450000	22.436522	0.000975	20.800437
211.050602	-2.997600	3.809000	-11.417000	22.412100	0.000974	20.802058
212.049668	-3.002700	3.807900	-11.433000	22.437244	0.000977	20.773659
213.048934	-3.007300	3.809400	-11.455000	22.441353	0.000977	20.791999
214.058705	-2.983700	3.809300	-11.365000	22.469262	0.000979	20.779644
215.052830	-3.013300	3.807200	-11.470000	22.457674	0.000978	20.778945
216.051628	-3.034600	3.807700	-11.554000	22.468239	0.000979	20.807544
217.053835	-2.982900	3.806900	-11.355000	22.488820	0.000979	20.783584
218.052986	-2.996800	3.806200	-11.404000	22.484061	0.000980	20.784508
219.050686	-3.008700	3.805900	-11.449000	22.497565	0.000980	20.787600
220.055790	-2.998200	3.808000	-11.416000	22.496792	0.000979	20.803896
221.051106	-2.984300	3.808800	-11.365000	22.502323	0.000980	20.792840
222.051518	-3.014200	3.804400	-11.465000	22.491806	0.000979	20.806489
223.050049	-2.971500	3.806200	-11.307000	22.504563	0.000982	20.798402
224.051718	-3.000000	3.804500	-11.412000	22.519962	0.000982	20.792962
225.052144	-2.982200	3.804700	-11.345000	22.532743	0.000982	20.813349
226.057139	-2.987800	3.805100	-11.368000	22.519785	0.000981	20.823604
227.051236	-3.007800	3.803200	-11.439000	22.542211	0.000981	20.801494
228.051865	-3.003400	3.803400	-11.422000	22.535209	0.000985	20.795429
229.052815	-2.991300	3.805000	-11.381000	22.537849	0.000984	20.804712
230.054527	-3.014400	3.803000	-11.462000	22.544876	0.000983	20.808905
231.058613	-3.001000	3.804600	-11.417000	22.551804	0.000983	20.774117
232.057850	-2.991000	3.804100	-11.376000	22.543431	0.000985	20.819311
233.055629	-3.004900	3.802800	-11.426000	22.530251	0.000985	20.815594
234.053483	-2.996100	3.802200	-11.389000	22.551505	0.000984	20.791362
235.054590	-3.015000	3.800800	-11.458000	22.539144	0.000986	20.801741
236.060009	-3.004200	3.802700	-11.423000	22.541537	0.000985	20.809354
237.053509	-3.004100	3.802300	-11.421000	22.547991	0.000986	20.813447
238.054615	-2.978400	3.804100	-11.329000	22.577344	0.000988	20.799697
239.058965	-2.999400	3.801100	-11.400000	22.571961	0.000985	20.816116
240.054836	-3.010100	3.800800	-11.440000	22.590700	0.000987	20.819712
241.060144	-3.005600	3.800200	-11.421000	22.588558	0.000987	20.815670
242.058434	-2.993700	3.802000	-11.380000	22.610732	0.000989	20.828396
243.054943	-2.995300	3.801400	-11.385000	22.605052	0.000988	20.806586
244.058900	-2.982100	3.800700	-11.333000	22.612104	0.000990	20.812700
245.057800	-2.999600	3.799900	-11.396000	22.619853	0.000989	20.816195
246.061644	-3.008100	3.800800	-11.432000	22.627477	0.000989	20.803917
247.059106	-2.977700	3.799200	-11.312000	22.599497	0.000990	20.805289
248.059135	-2.994800	3.798800	-11.375000	22.621100	0.000988	20.797055
249.056046	-3.011500	3.798100	-11.437000	22.626184	0.000991	20.817794
250.059906	-3.000500	3.798300	-11.395000	22.628726	0.000993	20.818444
251.055513	-3.007800	3.798200	-11.423000	22.628303	0.000991	20.810907
252.056443	-2.989500	3.797900	-11.353000	22.633558	0.000990	20.807637
253.064043	-2.994300	3.798400	-11.372000	22.640511	0.000994	20.817446
254.060313	-2.975200	3.798100	-11.299000	22.657156	0.000994	20.804246
255.063567	-3.000200	3.797100	-11.391000	22.677835	0.000992	20.812157
256.062590	-2.995400	3.797700	-11.374000	22.699188	0.000994	20.811260
257.060779	-2.981000	3.797600	-11.318000	22.717250	0.000994	20.812757
258.064752	-2.997100	3.797000	-11.379000	22.697445	0.000995	20.806194
259.072762	-3.025500	3.795400	-11.482000	22.723878	0.000996	20.827931
260.059814	-2.976000	3.798500	-11.302000	22.698891	0.000995	20.820445
261.062672	-3.009800	3.795600	-11.423000	22.721091	0.000994	20.795267
262.064451	-3.019100	3.793900	-11.453000	22.734195	0.000995	20.809342
263.062402	-3.007600	3.793600	-11.408000	22.739976	0.000996	20.801382
264.064036	-2.999400	3.795600	-11.383000	22.743788	0.000997	20.795243
265.061984	-2.997300	3.793700	-11.370000	22.758114	0.000997	20.805800
266.064485	-2.994000	3.794300	-11.359000	22.753258	0.000998	20.816583
267.065706	-3.004000	3.793300	-11.394000	22.761405	0.000999	20.812890
268.069493	-2.989000	3.795700	-11.343000	22.770623	0.000998	20.803633
269.062175	-2.991600	3.794200	-11.349000	22.765094	0.000999	20.832706
270.064679	-2.986500	3.794600	-11.331000	22.774014	0.000998	20.819357
271.066238	-2.977200	3.795400	-11.298000	22.776630	0.000999	20.797796
272.063974	-2.999800	3.794300	-11.381000	22.792624	0.001000	20.801964
