LabVIEW Measurement	
Writer_Version	2
Reader_Version	2
Separator	Tab
Decimal_Separator	.
Multi_Headings	No
X_Columns	One
Time_Pref	Absolute
Operator	admin
Description	Clolumns are: time, Current, Voltage, Power, Battery Temp, and Chamber Temp
Date	2024/08/16
Time	13:06:06.104549407958984375
***End_of_Header***	
	
Channels	6						
Samples	1	1	1	1	1	1	
Date	2024/09/07	2024/09/07	2024/09/07	2024/09/07	2024/09/07	2024/09/07	
Time	21:33:16.2586126327514648438	21:33:16.2646985054016113281	21:33:16.2703962326049804688	21:33:16.2425241470336914063	21:33:16.2425241470336914063	21:33:16.2425241470336914063	
X_Dimension	Time	Time	Time	Time	Time	Time	
X0	0.0000000000000000E+0	0.0000000000000000E+0	0.0000000000000000E+0	0.0000000000000000E+0	0.0000000000000000E+0	0.0000000000000000E+0	
Delta_X	1.000000	1.000000	1.000000	1.000000	1.000000	1.000000	
***End_of_Header***							
X_Value	Untitled	Untitled 1	Untitled 2	Untitled 3	Untitled 4	Untitled 5	Comment
0.000000	3.400000E+38	4.097500	0.190860	20.976637	0.000916	20.835352
1.000305	-3.007800	3.924800	-11.803000	20.972691	0.000915	20.840414
2.000331	-2.992400	3.918900	-11.726000	20.986691	0.000915	20.836873
3.001782	-3.001400	3.914200	-11.747000	20.972014	0.000913	20.834522
4.000735	-3.002100	3.909700	-11.737000	20.995145	0.000913	20.833475
5.002369	-2.994200	3.906700	-11.695000	20.966196	0.000912	20.833445
6.002283	-2.999900	3.903300	-11.708000	20.989801	0.000911	20.828131
7.001671	-2.962100	3.902100	-11.558000	20.997036	0.000910	20.829676
8.003208	-3.006600	3.898900	-11.722000	20.974730	0.000911	20.809738
9.001472	-2.988100	3.897300	-11.644000	20.977673	0.000908	20.829276
10.003672	-2.999000	3.895200	-11.680000	20.977643	0.000908	20.826876
11.002666	-2.985400	3.894000	-11.624000	20.995806	0.000907	20.835558
12.002555	-2.978800	3.892600	-11.595000	20.989815	0.000907	20.842369
13.005381	-3.011000	3.890300	-11.713000	20.997025	0.000909	20.821605
14.004544	-2.967800	3.890600	-11.545000	20.994951	0.000907	20.837074
15.003443	-2.987000	3.887600	-11.612000	21.026461	0.000905	20.824968
16.005050	-3.010600	3.885800	-11.697000	21.006027	0.000907	20.825393
17.004164	-2.994200	3.886200	-11.635000	21.014783	0.000904	20.843158
18.005162	-2.963300	3.888000	-11.520000	21.013829	0.000903	20.819920
19.005871	-3.005800	3.883200	-11.671000	21.005874	0.000901	20.838990
20.005589	-3.006100	3.883300	-11.672000	21.026199	0.000903	20.832292
21.005975	-2.980000	3.882900	-11.569000	21.027448	0.000902	20.800352
22.007122	-3.013600	3.880500	-11.694000	21.018762	0.000901	20.823906
23.006199	-3.015000	3.878900	-11.694000	21.023374	0.000902	20.817613
24.007979	-2.994900	3.878800	-11.616000	21.030331	0.000902	20.804184
25.006568	-3.010000	3.878000	-11.671000	21.047170	0.000900	20.812017
26.004910	-3.028000	3.876900	-11.737000	21.086110	0.000898	20.818724
27.007175	-3.014500	3.877100	-11.686000	21.070640	0.000899	20.844026
28.007512	-3.005200	3.876400	-11.648000	21.077548	0.000899	20.825332
29.006851	-3.008500	3.875800	-11.659000	21.064516	0.000898	20.830315
30.005942	-3.012600	3.875300	-11.673000	21.074866	0.000899	20.824546
31.008860	-2.998600	3.874800	-11.616000	21.111292	0.000899	20.831109
32.008690	-3.009700	3.874500	-11.660000	21.099110	0.000898	20.824614
33.009392	-2.999000	3.873900	-11.617000	21.103021	0.000898	20.810982
34.008858	-3.026600	3.873800	-11.723000	21.094088	0.000898	20.813427
35.008127	-3.012500	3.873000	-11.666000	21.126470	0.000895	20.826851
36.009289	-2.997000	3.871700	-11.602000	21.126717	0.000895	20.820934
37.008461	-3.006000	3.869900	-11.632000	21.119423	0.000896	20.814113
38.009419	-2.997500	3.871600	-11.602000	21.112214	0.000895	20.818281
39.008200	-2.986400	3.870700	-11.557000	21.110584	0.000895	20.809539
40.008878	-3.014100	3.869100	-11.660000	21.114198	0.000894	20.822163
41.011188	-2.981500	3.871400	-11.542000	21.139716	0.000895	20.817342
42.009146	-2.980600	3.870600	-11.536000	21.160523	0.000896	20.806387
43.010088	-3.000300	3.868600	-11.607000	21.160093	0.000894	20.811647
44.009660	-2.991400	3.868200	-11.571000	21.159392	0.000895	20.807627
45.011488	-2.990300	3.867000	-11.562000	21.163283	0.000894	20.815312
46.010376	-2.975100	3.868100	-11.506000	21.163204	0.000894	20.816181
47.011530	-2.990800	3.866500	-11.563000	21.199123	0.000895	20.808490
48.010318	-2.986400	3.867100	-11.548000	21.198723	0.000894	20.819470
49.012012	-3.024300	3.865900	-11.690000	21.209146	0.000893	20.809508
50.010510	-2.998100	3.866000	-11.589000	21.205576	0.000893	20.800247
51.013037	-3.013300	3.865000	-11.646000	21.190083	0.000893	20.823628
52.012650	-2.986700	3.865400	-11.543000	21.219588	0.000891	20.805255
53.015534	-3.016000	3.864100	-11.653000	21.221657	0.000893	20.803531
54.011895	-2.988000	3.865900	-11.550000	21.231106	0.000893	20.814880
55.011907	-2.985800	3.865100	-11.539000	21.222832	0.000892	20.801861
56.009971	-2.984100	3.865600	-11.535000	21.252257	0.000893	20.815177
57.011334	-2.993800	3.864300	-11.568000	21.237860	0.000893	20.807886
58.010967	-2.982200	3.863400	-11.520000	21.256967	0.000891	20.806138
59.009882	-2.957900	3.863700	-11.427000	21.277342	0.000892	20.809452
60.015744	-3.018800	3.861800	-11.657000	21.258803	0.000893	20.809397
61.011978	-2.980800	3.863500	-11.515000	21.274197	0.000890	20.811047
62.016475	-3.000300	3.862500	-11.588000	21.270104	0.000890	20.822599
63.013038	-3.004900	3.862100	-11.605000	21.290731	0.000891	20.789656
64.017972	-2.990900	3.862100	-11.550000	21.287087	0.000892	20.814460
65.011305	-3.014900	3.862000	-11.643000	21.297781	0.000893	20.803821
66.013617	-2.997300	3.861500	-11.573000	21.307353	0.000891	20.809130
67.016606	-3.004300	3.860700	-11.598000	21.293984	0.000892	20.820885
68.012129	-2.993800	3.861300	-11.558000	21.321867	0.000892	20.795676
69.015105	-2.987700	3.860400	-11.532000	21.319917	0.000891	20.801311
70.015759	-3.009900	3.860300	-11.617000	21.316491	0.000891	20.802624
71.013117	-2.988200	3.859400	-11.531000	21.328586	0.000892	20.809509
72.015989	-3.015500	3.858800	-11.635000	21.349612	0.000892	20.808734
73.018431	-2.996500	3.859500	-11.564000	21.354992	0.000891	20.789461
74.014240	-3.018300	3.858900	-11.645000	21.367887	0.000890	20.789086
75.016671	-2.992200	3.858900	-11.544000	21.370207	0.000892	20.810373
76.019426	-3.005400	3.858500	-11.595000	21.376161	0.000890	20.795467
77.015710	-2.987900	3.857600	-11.524000	21.394115	0.000890	20.820542
78.018789	-2.999300	3.857200	-11.568000	21.395364	0.000892	20.786231
79.018888	-2.988400	3.857400	-11.526000	21.414937	0.000893	20.798228
80.016343	-2.970500	3.858000	-11.459000	21.430348	0.000893	20.803690
81.018716	-3.003600	3.858400	-11.588000	21.437871	0.000894	20.769017
82.021915	-3.011600	3.855700	-11.610000	21.451461	0.000891	20.787356
83.018435	-3.001500	3.856100	-11.573000	21.445221	0.000893	20.785855
84.021422	-3.007600	3.856600	-11.598000	21.436365	0.000892	20.771304
85.022416	-3.023100	3.855100	-11.653000	21.444317	0.000892	20.775941
86.019087	-2.997200	3.855300	-11.554000	21.451796	0.000892	20.784373
87.022018	-3.020100	3.854100	-11.639000	21.466955	0.000892	20.808549
88.023372	-3.005100	3.854800	-11.583000	21.454758	0.000892	20.793026
89.020100	-3.000000	3.855600	-11.564000	21.488250	0.000892	20.783389
90.021201	-2.998500	3.854100	-11.556000	21.482682	0.000892	20.801526
91.026304	-3.020300	3.854000	-11.639000	21.483303	0.000894	20.799777
92.020762	-2.993500	3.854900	-11.538000	21.494252	0.000891	20.807887
93.023092	-3.001600	3.854500	-11.568000	21.485520	0.000892	20.799624
94.026920	-2.985500	3.854400	-11.506000	21.485115	0.000894	20.796848
95.022586	-3.011400	3.854000	-11.604000	21.487558	0.000892	20.772740
96.024296	-3.003500	3.853800	-11.574000	21.501271	0.000892	20.798315
97.030704	-2.990200	3.853900	-11.521000	21.513690	0.000892	20.791301
98.023499	-3.010200	3.853100	-11.597000	21.519174	0.000893	20.799634
99.025017	-3.004900	3.852800	-11.575000	21.517875	0.000893	20.800231
100.024576	-3.021800	3.851500	-11.637000	21.536948	0.000892	20.778538
101.025687	-2.973800	3.853600	-11.459000	21.559446	0.000894	20.798680
102.028389	-2.995600	3.850700	-11.534000	21.526972	0.000893	20.779936
103.026549	-2.978600	3.850800	-11.469000	21.538118	0.000893	20.788718
104.026526	-2.997700	3.852000	-11.546000	21.549589	0.000894	20.775540
105.028669	-2.999000	3.850900	-11.548000	21.575694	0.000893	20.777481
106.028738	-3.024900	3.849100	-11.641000	21.578986	0.000893	20.776508
107.030395	-3.017600	3.849300	-11.614000	21.580102	0.000895	20.766719
108.031122	-3.006400	3.850300	-11.575000	21.580778	0.000893	20.774508
109.029258	-2.982300	3.850500	-11.482000	21.587234	0.000894	20.774804
110.029256	-3.002100	3.849100	-11.555000	21.611325	0.000893	20.769514
111.031782	-3.012200	3.849700	-11.595000	21.603689	0.000893	20.746700
112.031266	-2.987000	3.850800	-11.501000	21.618960	0.000896	20.782371
113.032946	-3.022500	3.849300	-11.631000	21.635060	0.000896	20.772878
114.034457	-3.004800	3.848200	-11.562000	21.650074	0.000895	20.748547
115.033683	-2.992800	3.847300	-11.513000	21.636560	0.000895	20.752568
116.034817	-2.989100	3.849000	-11.503000	21.626833	0.000895	20.774601
117.034254	-2.977800	3.850200	-11.463000	21.645410	0.000895	20.769010
118.033248	-3.012000	3.847000	-11.586000	21.671266	0.000896	20.781136
119.034314	-3.000200	3.848500	-11.544000	21.678669	0.000896	20.774794
120.034102	-3.010900	3.846600	-11.580000	21.693688	0.000898	20.769909
121.035374	-3.000000	3.847700	-11.542000	21.714504	0.000897	20.751387
122.035560	-2.990400	3.847800	-11.504000	21.705527	0.000896	20.777491
123.037112	-3.017000	3.846000	-11.603000	21.716774	0.000897	20.765513
124.035457	-3.015400	3.846500	-11.597000	21.709544	0.000894	20.774399
125.035987	-2.986900	3.848200	-11.493000	21.742082	0.000897	20.775194
126.038974	-2.981000	3.846700	-11.466000	21.735750	0.000899	20.774073
127.035988	-3.021200	3.845300	-11.617000	21.737571	0.000898	20.773999
128.036993	-3.012600	3.846000	-11.586000	21.753778	0.000897	20.769356
129.039083	-2.991500	3.845900	-11.503000	21.747170	0.000897	20.758475
130.039127	-2.996600	3.845000	-11.521000	21.725954	0.000898	20.764743
131.043386	-3.002800	3.845200	-11.545000	21.761659	0.000898	20.747846
132.039765	-3.000700	3.844300	-11.533000	21.773360	0.000898	20.761453
133.040171	-3.007400	3.843700	-11.559000	21.756902	0.000897	20.755887
134.041110	-3.002300	3.844200	-11.540000	21.751468	0.000901	20.743810
135.042984	-3.004900	3.843400	-11.547000	21.760864	0.000900	20.756534
136.042025	-2.996200	3.842800	-11.513000	21.755515	0.000900	20.737429
137.041607	-3.006000	3.843000	-11.551000	21.768252	0.000901	20.755393
138.040189	-2.992400	3.843200	-11.500000	21.788554	0.000901	20.765281
139.041181	-3.005200	3.842700	-11.545000	21.789448	0.000903	20.741993
140.042099	-3.009300	3.842800	-11.561000	21.811368	0.000900	20.743544
141.040971	-3.008700	3.842100	-11.560000	21.804114	0.000901	20.752405
142.046963	-3.027400	3.841000	-11.626000	21.803438	0.000901	20.756944
143.041914	-3.013200	3.841800	-11.574000	21.827554	0.000901	20.745045
144.042392	-3.008900	3.841500	-11.557000	21.830939	0.000903	20.768349
145.043183	-3.013600	3.842100	-11.578000	21.827825	0.000903	20.749584
146.042120	-3.012000	3.840900	-11.567000	21.833234	0.000903	20.751204
147.042796	-3.007700	3.840800	-11.550000	21.882949	0.000903	20.746438
148.046834	-3.012000	3.840000	-11.564000	21.865348	0.000904	20.749683
149.043979	-3.002700	3.841700	-11.534000	21.877734	0.000904	20.727940
150.044093	-3.026600	3.839400	-11.619000	21.898828	0.000903	20.755220
151.044022	-2.980100	3.842200	-11.447000	21.900348	0.000905	20.757690
152.044514	-3.015300	3.839400	-11.575000	21.926599	0.000905	20.755991
153.042282	-3.011800	3.840600	-11.566000	21.916424	0.000906	20.752444
154.046166	-3.005400	3.839200	-11.535000	21.938692	0.000904	20.742017
155.043939	-3.000000	3.839300	-11.517000	21.953796	0.000907	20.756662
156.044915	-2.994300	3.839600	-11.496000	21.957334	0.000906	20.747875
157.048637	-3.026100	3.838600	-11.615000	21.941900	0.000908	20.741909
158.045957	-3.032900	3.837000	-11.636000	21.951970	0.000908	20.728755
159.046804	-2.997100	3.839300	-11.506000	21.941673	0.000908	20.754484
160.048315	-3.002800	3.840100	-11.529000	21.951541	0.000909	20.743499
161.046188	-3.021300	3.839100	-11.597000	21.981653	0.000909	20.744245
162.044183	-2.994100	3.839400	-11.494000	21.958740	0.000909	20.743118
163.052136	-3.027100	3.837200	-11.615000	21.987086	0.000909	20.744467
164.044487	-2.987600	3.838500	-11.467000	21.978930	0.000910	20.744363
165.047602	-2.990300	3.837300	-11.474000	21.986755	0.000911	20.748403
166.049727	-3.012000	3.836000	-11.553000	21.993105	0.000912	20.764244
167.045918	-2.991200	3.837800	-11.477000	21.997792	0.000912	20.749495
168.045762	-3.006400	3.837400	-11.535000	21.987293	0.000914	20.757477
169.048551	-3.008600	3.836400	-11.541000	22.019250	0.000914	20.735887
170.044416	-2.994600	3.836300	-11.487000	21.988783	0.000914	20.759917
171.044877	-2.999800	3.835400	-11.505000	22.017054	0.000915	20.742224
172.049411	-3.018700	3.835500	-11.577000	22.018495	0.000916	20.743192
173.047312	-3.006300	3.835600	-11.530000	22.022156	0.000914	20.752073
174.046340	-3.000600	3.835400	-11.508000	22.075080	0.000915	20.738199
175.049259	-3.008800	3.834900	-11.537000	22.048325	0.000917	20.737018
176.047106	-3.018900	3.835300	-11.576000	22.069638	0.000914	20.759304
177.046783	-3.003300	3.834700	-11.515000	22.075795	0.000916	20.734173
178.052553	-3.012000	3.835200	-11.550000	22.087878	0.000917	20.733467
179.047868	-3.025600	3.833200	-11.596000	22.090270	0.000917	20.750087
180.045675	-2.994300	3.835200	-11.482000	22.096797	0.000918	20.764683
181.047422	-3.009700	3.832500	-11.533000	22.106585	0.000918	20.735126
182.049215	-3.007200	3.834700	-11.529000	22.093077	0.000919	20.741992
183.048669	-3.005600	3.833500	-11.521000	22.120942	0.000920	20.747129
184.051709	-2.992400	3.832400	-11.466000	22.110024	0.000919	20.755639
185.048233	-2.985100	3.833700	-11.442000	22.108302	0.000921	20.745380
186.047448	-3.003100	3.833100	-11.510000	22.158795	0.000921	20.749465
187.048320	-3.003700	3.831600	-11.508000	22.141548	0.000920	20.751638
188.047153	-3.004700	3.833000	-11.516000	22.139718	0.000921	20.780152
189.052375	-3.001700	3.831400	-11.499000	22.146348	0.000922	20.762608
190.047515	-3.002500	3.831700	-11.503000	22.171671	0.000923	20.750502
191.051622	-3.004900	3.832300	-11.515000	22.171617	0.000922	20.747603
192.047417	-3.007600	3.831200	-11.522000	22.188907	0.000923	20.742155
193.049375	-2.992600	3.830100	-11.461000	22.193766	0.000925	20.760771
194.051898	-3.012500	3.831000	-11.540000	22.190821	0.000925	20.733639
195.048602	-3.012400	3.831100	-11.539000	22.197925	0.000925	20.752132
196.048064	-2.985700	3.831100	-11.438000	22.202128	0.000924	20.768195
197.048291	-2.978500	3.831400	-11.409000	22.247585	0.000924	20.738791
198.053076	-3.016400	3.830100	-11.552000	22.215408	0.000925	20.768215
199.049389	-3.005800	3.830100	-11.511000	22.210766	0.000925	20.753609
200.051689	-2.974600	3.831200	-11.396000	22.220361	0.000927	20.736662
201.050058	-2.993300	3.830100	-11.463000	22.219557	0.000928	20.764308
202.051262	-2.991400	3.828600	-11.452000	22.204427	0.000928	20.741098
203.049126	-2.977400	3.829500	-11.401000	22.192484	0.000926	20.760910
204.048858	-3.005200	3.828100	-11.503000	22.202651	0.000929	20.770615
205.053775	-2.994400	3.828600	-11.462000	22.203949	0.000929	20.756741
206.052322	-3.020200	3.827000	-11.557000	22.212542	0.000929	20.753965
207.049909	-3.004900	3.828900	-11.504000	22.259893	0.000929	20.762969
208.051057	-3.014600	3.827000	-11.534000	22.284241	0.000930	20.754632
209.051962	-3.003300	3.828200	-11.496000	22.270405	0.000929	20.748838
210.058639	-2.983500	3.828900	-11.422000	22.277686	0.000930	20.745223
211.056782	-2.991000	3.826400	-11.443000	22.273463	0.000930	20.746211
212.056232	-2.995700	3.827200	-11.464000	22.309378	0.000932	20.754672
213.054280	-3.018200	3.825700	-11.545000	22.309526	0.000930	20.771416
214.054748	-3.012800	3.826000	-11.526000	22.314025	0.000933	20.764541
215.055243	-2.976000	3.826300	-11.386000	22.338776	0.000933	20.758031
216.060500	-2.993200	3.825500	-11.449000	22.354802	0.000934	20.755111
217.055342	-3.002400	3.825900	-11.484000	22.364198	0.000934	20.758356
218.058263	-2.966800	3.826700	-11.352000	22.344602	0.000933	20.753906
219.054479	-3.002500	3.825500	-11.485000	22.337075	0.000934	20.741627
220.057118	-3.005000	3.824700	-11.492000	22.333982	0.000936	20.759868
221.058217	-2.999700	3.825200	-11.474000	22.376845	0.000936	20.757744
222.058646	-3.007800	3.824600	-11.502000	22.351749	0.000934	20.776711
223.056332	-3.014400	3.824600	-11.528000	22.362812	0.000936	20.762659
224.055131	-3.002200	3.824300	-11.479000	22.364381	0.000937	20.754746
225.055904	-3.005800	3.824100	-11.493000	22.361387	0.000936	20.777353
226.061093	-3.005100	3.824100	-11.491000	22.386660	0.000937	20.766151
227.058173	-2.993200	3.823200	-11.442000	22.390369	0.000937	20.751847
228.057006	-2.984700	3.824600	-11.414000	22.383316	0.000936	20.770389
229.061839	-3.006600	3.822600	-11.492000	22.375488	0.000940	20.782465
230.056799	-2.984300	3.823900	-11.410000	22.372919	0.000940	20.771357
231.060484	-2.994400	3.823100	-11.446000	22.381392	0.000939	20.778420
232.081273	-2.992200	3.823800	-11.440000	22.384653	0.000939	20.754183
233.060149	-3.010400	3.821600	-11.504000	22.403750	0.000941	20.763350
234.066020	-2.990500	3.824400	-11.436000	22.412618	0.000939	20.774602
235.059517	-2.990500	3.823000	-11.432000	22.403070	0.000942	20.767411
236.059643	-2.988700	3.823000	-11.425000	22.411671	0.000942	20.758006
237.059522	-2.996900	3.822900	-11.456000	22.403099	0.000941	20.778820
238.061852	-2.973900	3.822600	-11.367000	22.416633	0.000942	20.771036
239.059183	-2.995900	3.823100	-11.452000	22.424386	0.000943	20.761730
240.060278	-3.003500	3.821100	-11.475000	22.432036	0.000945	20.778874
241.061324	-2.988700	3.822100	-11.422000	22.445392	0.000947	20.770912
242.060539	-2.982100	3.820900	-11.393000	22.472606	0.000943	20.764027
243.061790	-3.001400	3.818700	-11.460000	22.461243	0.000946	20.772562
244.060477	-3.000100	3.819200	-11.456000	22.510906	0.000946	20.771090
245.063640	-2.997100	3.821300	-11.450000	22.503662	0.000947	20.787542
246.060367	-2.997200	3.819200	-11.446000	22.524942	0.000947	20.779931
247.063442	-2.995200	3.819400	-11.439000	22.537325	0.000948	20.780954
248.062512	-2.992000	3.819500	-11.427000	22.562220	0.000947	20.788343
249.065735	-3.023300	3.819000	-11.544000	22.570519	0.000948	20.762515
250.061883	-3.004600	3.818900	-11.473000	22.590181	0.000948	20.791217
251.063786	-3.007200	3.818100	-11.480000	22.582680	0.000948	20.782756
252.063573	-2.992700	3.818200	-11.426000	22.562077	0.000949	20.780138
253.065930	-2.992700	3.818700	-11.428000	22.579869	0.000951	20.788002
254.065574	-2.996900	3.817400	-11.438000	22.580101	0.000950	20.761206
255.065331	-3.000400	3.816700	-11.450000	22.571900	0.000951	20.785710
256.072219	-3.009800	3.817000	-11.487000	22.610572	0.000952	20.792200
257.063458	-2.998500	3.817500	-11.445000	22.606360	0.000953	20.780395
258.065508	-2.972500	3.818800	-11.350000	22.614162	0.000953	20.775881
259.068770	-2.993700	3.815800	-11.421000	22.577384	0.000955	20.778874
260.065987	-3.017500	3.815900	-11.514000	22.597267	0.000953	20.795469
261.063954	-2.996100	3.816700	-11.434000	22.629912	0.000955	20.785492
262.065895	-3.030200	3.814500	-11.557000	22.610453	0.000954	20.789236
263.064951	-2.978500	3.815500	-11.363000	22.620518	0.000957	20.776557
264.065935	-2.994300	3.816200	-11.425000	22.631081	0.000955	20.783818
265.068338	-2.997400	3.815100	-11.435000	22.633773	0.000957	20.802636
266.066146	-3.001800	3.814600	-11.450000	22.649316	0.000957	20.773633
267.065655	-3.008600	3.815300	-11.477000	22.627639	0.000958	20.780845
268.066918	-2.994100	3.814700	-11.419000	22.654474	0.000958	20.785912
269.066853	-2.978500	3.815000	-11.363000	22.654878	0.000959	20.789162
270.072676	-2.980600	3.814300	-11.368000	22.615360	0.000961	20.767124
271.068363	-3.011600	3.812700	-11.481000	22.643537	0.000960	20.780173
272.071423	-3.011100	3.812600	-11.479000	22.666057	0.000960	20.809842
