LabVIEW Measurement	
Writer_Version	2
Reader_Version	2
Separator	Tab
Decimal_Separator	.
Multi_Headings	No
X_Columns	One
Time_Pref	Absolute
Operator	admin
Description	Clolumns are: time, Current, Voltage, Power, Battery Temp, and Chamber Temp
Date	2024/08/16
Time	13:06:06.104549407958984375
***End_of_Header***	
	
Channels	6						
Samples	1	1	1	1	1	1	
Date	2024/09/05	2024/09/05	2024/09/05	2024/09/05	2024/09/05	2024/09/05	
Time	19:48:06.6049599647521972656	19:48:06.610408782958984375	19:48:06.6164073944091796875	19:48:06.58917999267578125	19:48:06.58917999267578125	19:48:06.58917999267578125	
X_Dimension	Time	Time	Time	Time	Time	Time	
X0	0.0000000000000000E+0	0.0000000000000000E+0	0.0000000000000000E+0	0.0000000000000000E+0	0.0000000000000000E+0	0.0000000000000000E+0	
Delta_X	1.000000	1.000000	1.000000	1.000000	1.000000	1.000000	
***End_of_Header***							
X_Value	Untitled	Untitled 1	Untitled 2	Untitled 3	Untitled 4	Untitled 5	Comment
0.000000	0.005029	4.099000	0.020588	21.011014	0.000927	20.819002
1.008257	-2.987700	3.931000	-11.744000	21.014404	0.000925	20.818125
2.002933	-2.983800	3.922600	-11.704000	21.010481	0.000924	20.828426
3.000385	-3.015200	3.918500	-11.814000	21.003866	0.000924	20.821335
4.007921	-2.998300	3.914000	-11.734000	21.036874	0.000922	20.816891
5.002878	-2.998800	3.911200	-11.728000	21.028016	0.000923	20.816566
6.001117	-2.987100	3.908400	-11.674000	21.000043	0.000923	20.823201
7.004002	-3.004300	3.905600	-11.733000	21.013788	0.000921	20.820827
8.000241	-3.008300	3.903200	-11.742000	21.033320	0.000919	20.815234
9.001230	-3.005900	3.900100	-11.723000	21.042600	0.000921	20.832101
10.001626	-2.963500	3.900800	-11.558000	21.038408	0.000919	20.830279
11.000314	-2.984100	3.900000	-11.637000	21.040298	0.000918	20.814626
12.000891	-2.990400	3.896800	-11.652000	21.038349	0.000916	20.817893
13.000746	-2.973600	3.895900	-11.583000	21.029541	0.000916	20.826626
14.001205	-2.981100	3.893600	-11.606000	21.044958	0.000915	20.819762
15.001495	-2.964300	3.894900	-11.545000	21.053234	0.000915	20.821401
16.002542	-2.986100	3.891600	-11.620000	21.057228	0.000915	20.824447
17.001305	-2.992600	3.889500	-11.639000	21.066929	0.000915	20.809969
18.001874	-2.991600	3.888900	-11.633000	21.059019	0.000912	20.817704
19.002996	-2.996900	3.888700	-11.653000	21.056447	0.000914	20.807072
20.003240	-2.988800	3.888700	-11.622000	21.068196	0.000913	20.803176
21.005317	-3.028000	3.885000	-11.763000	21.075230	0.000912	20.816375
22.003434	-2.969800	3.886700	-11.542000	21.090870	0.000911	20.819691
23.002903	-2.993100	3.885500	-11.628000	21.093011	0.000911	20.822307
24.003704	-2.996200	3.884700	-11.638000	21.102665	0.000909	20.803989
25.006038	-2.993500	3.884000	-11.626000	21.106330	0.000908	20.802913
26.004646	-2.970800	3.883900	-11.538000	21.112790	0.000910	20.807004
27.005231	-3.007400	3.881200	-11.670000	21.114361	0.000910	20.813317
28.012818	-3.014700	3.880000	-11.696000	21.114411	0.000907	20.793452
29.005220	-2.998000	3.880200	-11.632000	21.137412	0.000909	20.810770
30.008158	-2.997900	3.880100	-11.632000	21.138208	0.000908	20.823894
31.010232	-2.989600	3.879000	-11.595000	21.132393	0.000908	20.803853
32.006091	-2.995600	3.878300	-11.617000	21.151527	0.000906	20.814458
33.008744	-3.012200	3.876900	-11.677000	21.151102	0.000904	20.819723
34.005464	-3.003200	3.878200	-11.646000	21.154269	0.000906	20.804398
35.005791	-3.001200	3.878100	-11.638000	21.148358	0.000909	20.809391
36.009436	-2.998200	3.876200	-11.620000	21.155490	0.000906	20.793766
37.005118	-2.990300	3.877400	-11.594000	21.195578	0.000904	20.817272
38.006438	-2.984900	3.875500	-11.567000	21.167836	0.000905	20.806116
39.007863	-2.995800	3.875800	-11.610000	21.165689	0.000905	20.794011
40.006295	-2.975900	3.874700	-11.529000	21.182505	0.000904	20.809410
41.007557	-2.996100	3.874000	-11.606000	21.192233	0.000904	20.797330
42.013677	-3.009900	3.874100	-11.660000	21.193428	0.000904	20.780508
43.007780	-2.986000	3.874000	-11.567000	21.202707	0.000903	20.803066
44.006659	-2.987500	3.873000	-11.569000	21.208742	0.000901	20.792982
45.010884	-3.003000	3.873100	-11.630000	21.226524	0.000904	20.795124
46.007235	-2.993800	3.872900	-11.593000	21.230666	0.000902	20.797371
47.009400	-2.992000	3.872500	-11.586000	21.234204	0.000902	20.788582
48.007592	-2.991600	3.870000	-11.576000	21.250567	0.000903	20.810167
49.016439	-3.004500	3.869700	-11.626000	21.226345	0.000902	20.817230
50.013396	-3.019500	3.870500	-11.685000	21.244879	0.000903	20.792149
51.011081	-3.004000	3.869900	-11.624000	21.259170	0.000902	20.805971
52.015550	-3.012800	3.870300	-11.659000	21.242556	0.000903	20.804524
53.012940	-2.991000	3.870000	-11.574000	21.275028	0.000902	20.802869
54.013587	-3.009200	3.868600	-11.641000	21.287053	0.000901	20.783606
55.018507	-2.990200	3.870600	-11.572000	21.268216	0.000902	20.797003
56.015814	-2.982900	3.869100	-11.540000	21.277643	0.000902	20.792683
57.017893	-3.019100	3.866600	-11.672000	21.302886	0.000904	20.783798
58.016778	-2.995000	3.868300	-11.583000	21.292481	0.000901	20.792829
59.018571	-2.997800	3.867400	-11.593000	21.297992	0.000902	20.812567
60.016935	-2.992200	3.867500	-11.570000	21.301307	0.000901	20.793598
61.018529	-3.013100	3.866700	-11.649000	21.304795	0.000899	20.807519
62.017949	-2.999700	3.865900	-11.595000	21.323127	0.000900	20.809738
63.018279	-3.013100	3.866300	-11.649000	21.318060	0.000902	20.799453
64.018743	-3.012700	3.865000	-11.643000	21.335995	0.000900	20.793215
65.017979	-2.996300	3.866500	-11.585000	21.330330	0.000902	20.789917
66.020004	-3.004500	3.865900	-11.615000	21.333419	0.000899	20.803439
67.020285	-3.000000	3.864800	-11.593000	21.338056	0.000901	20.782948
68.020175	-3.020400	3.865200	-11.673000	21.350976	0.000901	20.784969
69.021551	-2.996100	3.863600	-11.575000	21.367335	0.000900	20.820301
70.018924	-3.003600	3.863200	-11.602000	21.374716	0.000902	20.793548
71.023154	-2.983800	3.865200	-11.530000	21.384693	0.000899	20.794995
72.023325	-3.022900	3.861700	-11.672000	21.397786	0.000900	20.795767
73.021407	-2.992600	3.863700	-11.562000	21.398654	0.000899	20.790471
74.023139	-3.003000	3.863600	-11.601000	21.407234	0.000899	20.794788
75.024239	-2.999600	3.864300	-11.590000	21.404812	0.000901	20.801374
76.022049	-3.020100	3.861300	-11.660000	21.416505	0.000899	20.785572
77.024539	-3.013100	3.862100	-11.636000	21.441996	0.000900	20.801120
78.031338	-3.008300	3.861900	-11.616000	21.440222	0.000900	20.791758
79.023536	-2.992000	3.862300	-11.555000	21.434907	0.000901	20.807303
80.025224	-2.999800	3.860700	-11.580000	21.451518	0.000899	20.782198
81.024148	-3.006900	3.861500	-11.609000	21.463836	0.000901	20.796420
82.025364	-2.995600	3.861200	-11.565000	21.464233	0.000902	20.804877
83.026268	-2.996600	3.860200	-11.567000	21.473159	0.000901	20.807645
84.029417	-2.998700	3.860400	-11.575000	21.473832	0.000899	20.787929
85.029020	-3.008900	3.860400	-11.615000	21.487345	0.000901	20.782959
86.029462	-3.003400	3.859800	-11.591000	21.499490	0.000901	20.802223
87.028613	-2.990700	3.858700	-11.540000	21.518193	0.000901	20.783005
88.028511	-2.982000	3.860200	-11.510000	21.504801	0.000902	20.786201
89.033761	-3.013600	3.857200	-11.622000	21.503451	0.000901	20.808557
90.033604	-2.984600	3.858600	-11.516000	21.514499	0.000900	20.788318
91.033336	-3.007000	3.858400	-11.601000	21.538189	0.000901	20.792108
92.030322	-3.000900	3.857800	-11.576000	21.514471	0.000900	20.790187
93.033619	-3.004200	3.859000	-11.591000	21.540831	0.000903	20.771992
94.030354	-3.014700	3.857300	-11.628000	21.546589	0.000903	20.794824
95.031103	-3.009900	3.857200	-11.609000	21.569082	0.000901	20.808797
96.034995	-3.021400	3.858000	-11.656000	21.585091	0.000901	20.768866
97.031662	-3.026400	3.855800	-11.668000	21.576388	0.000903	20.783391
98.031705	-3.015000	3.856000	-11.624000	21.583917	0.000901	20.791400
99.031792	-3.018900	3.856700	-11.641000	21.579127	0.000901	20.802253
100.034861	-3.001600	3.856900	-11.575000	21.563914	0.000902	20.793669
101.031695	-3.032300	3.855400	-11.690000	21.598799	0.000900	20.777368
102.031194	-3.000900	3.855200	-11.567000	21.586454	0.000902	20.773076
103.035471	-3.004000	3.855900	-11.582000	21.584956	0.000902	20.785327
104.037750	-3.029800	3.854700	-11.678000	21.613782	0.000902	20.792362
105.033892	-3.016500	3.855200	-11.627000	21.621112	0.000903	20.790214
106.037053	-3.025700	3.854200	-11.661000	21.602631	0.000903	20.787367
107.036323	-2.988600	3.856600	-11.524000	21.627669	0.000904	20.789663
108.034715	-3.003200	3.855600	-11.577000	21.629908	0.000904	20.792379
109.036763	-2.995800	3.855800	-11.549000	21.638310	0.000904	20.790355
110.035256	-2.987900	3.854900	-11.517000	21.630702	0.000904	20.776103
111.034189	-3.003800	3.855000	-11.579000	21.631123	0.000905	20.792172
112.033402	-3.022500	3.852300	-11.641000	21.631848	0.000904	20.781043
113.035129	-2.993400	3.853500	-11.534000	21.680570	0.000903	20.783808
114.034978	-3.022000	3.852500	-11.641000	21.659326	0.000905	20.794791
115.035898	-3.018500	3.852100	-11.626000	21.682939	0.000906	20.767213
116.036563	-2.982800	3.852800	-11.491000	21.683335	0.000904	20.792740
117.037401	-2.971200	3.853700	-11.448000	21.702783	0.000906	20.782805
118.037782	-3.006600	3.851400	-11.578000	21.717294	0.000905	20.777887
119.039217	-2.988500	3.851600	-11.508000	21.734947	0.000907	20.787020
120.036392	-3.006100	3.853200	-11.582000	21.723648	0.000905	20.777134
121.036902	-3.000400	3.852400	-11.558000	21.720081	0.000904	20.808178
122.038689	-3.006700	3.850900	-11.577000	21.733741	0.000908	20.794348
123.038207	-2.998700	3.851000	-11.547000	21.757355	0.000906	20.781471
124.037953	-3.010500	3.849700	-11.589000	21.762913	0.000909	20.810742
125.038317	-3.020600	3.849900	-11.627000	21.759944	0.000907	20.787856
126.038697	-3.006800	3.852000	-11.579000	21.776724	0.000907	20.789477
127.041546	-2.997200	3.850500	-11.539000	21.775226	0.000906	20.789874
128.038189	-3.001800	3.850400	-11.557000	21.794173	0.000908	20.806467
129.039150	-3.003700	3.850600	-11.565000	21.786940	0.000907	20.791641
130.037810	-2.986900	3.850200	-11.499000	21.775595	0.000908	20.776967
131.038928	-3.004200	3.849900	-11.564000	21.814042	0.000907	20.787947
132.040975	-2.984200	3.850000	-11.489000	21.818703	0.000907	20.784077
133.041790	-2.974500	3.849800	-11.450000	21.833661	0.000907	20.811376
134.038661	-3.006000	3.848900	-11.567000	21.830893	0.000906	20.795804
135.043054	-2.983400	3.849600	-11.484000	21.837101	0.000907	20.800595
136.045818	-2.990700	3.848900	-11.510000	21.840194	0.000907	20.803691
137.038214	-2.997100	3.848700	-11.533000	21.855948	0.000908	20.799545
138.043627	-2.995500	3.848100	-11.526000	21.857694	0.000907	20.790861
139.039284	-2.993200	3.847100	-11.514000	21.863704	0.000906	20.789290
140.041414	-2.979600	3.848000	-11.465000	21.871308	0.000908	20.788366
141.039327	-3.000200	3.847800	-11.543000	21.885120	0.000908	20.808355
142.043501	-2.985900	3.848200	-11.490000	21.886593	0.000908	20.807459
143.041243	-2.985300	3.847300	-11.484000	21.895817	0.000907	20.805786
144.042758	-2.987900	3.846900	-11.493000	21.901752	0.000906	20.803666
145.047841	-2.996200	3.846800	-11.525000	21.896941	0.000908	20.812126
146.044154	-3.025400	3.846200	-11.634000	21.916838	0.000908	20.800275
147.045570	-2.989500	3.846800	-11.498000	21.918708	0.000909	20.790293
148.045473	-3.003600	3.847200	-11.555000	21.934940	0.000908	20.809860
149.048819	-2.989500	3.847200	-11.500000	21.903454	0.000908	20.824809
150.048495	-3.011300	3.845000	-11.577000	21.905549	0.000909	20.816950
151.047011	-2.991900	3.844600	-11.502000	21.924299	0.000909	20.807743
152.053264	-3.016100	3.844200	-11.594000	21.917196	0.000907	20.811539
153.050267	-3.001500	3.843800	-11.535000	21.929539	0.000910	20.812988
154.047771	-2.997800	3.845500	-11.526000	21.937768	0.000910	20.803682
155.047242	-2.989300	3.845100	-11.493000	21.954947	0.000911	20.794800
156.047248	-3.012200	3.843700	-11.577000	21.955749	0.000911	20.801292
157.047696	-3.002400	3.843500	-11.538000	21.967940	0.000910	20.812547
158.047856	-2.970900	3.844000	-11.418000	21.968417	0.000910	20.799274
159.049066	-3.005500	3.844000	-11.552000	21.984973	0.000913	20.787872
160.052423	-3.007100	3.842100	-11.551000	21.977821	0.000912	20.790670
161.052001	-3.003700	3.843800	-11.543000	21.992430	0.000913	20.791544
162.048866	-2.977400	3.843600	-11.443000	21.994578	0.000912	20.793694
163.050194	-3.014400	3.842200	-11.580000	21.995603	0.000912	20.796142
164.047613	-2.980500	3.843800	-11.455000	22.017118	0.000912	20.807248
165.049013	-2.997800	3.842500	-11.519000	22.011787	0.000914	20.798118
166.048546	-2.994000	3.843400	-11.506000	22.005629	0.000913	20.794325
167.048465	-2.990900	3.843100	-11.493000	22.016925	0.000914	20.805633
168.053658	-2.993400	3.841900	-11.499000	22.044325	0.000915	20.792759
169.050487	-3.007100	3.841700	-11.551000	22.032137	0.000916	20.809955
170.048231	-3.017500	3.840000	-11.586000	22.061629	0.000916	20.793961
171.057425	-2.987500	3.842400	-11.477000	22.065319	0.000917	20.802396
172.049051	-2.980500	3.842100	-11.451000	22.077562	0.000917	20.795686
173.048827	-2.996700	3.841400	-11.511000	22.065947	0.000921	20.803973
174.052870	-3.005400	3.840200	-11.541000	22.078886	0.000919	20.809340
175.048598	-3.003500	3.840400	-11.533000	22.076543	0.000919	20.805572
176.048366	-2.996600	3.840900	-11.509000	22.100753	0.000919	20.815110
177.048591	-2.987800	3.840700	-11.474000	22.101474	0.000921	20.813462
178.048104	-2.998300	3.839200	-11.510000	22.133880	0.000921	20.792800
179.049318	-3.011400	3.839200	-11.560000	22.138966	0.000921	20.797418
180.052436	-2.990600	3.839900	-11.480000	22.124386	0.000921	20.796571
181.053590	-3.005700	3.839200	-11.539000	22.140761	0.000922	20.810595
182.048581	-2.975200	3.840800	-11.426000	22.164617	0.000921	20.808874
183.047880	-3.002400	3.838700	-11.524000	22.162249	0.000924	20.804607
184.053427	-3.012800	3.837100	-11.559000	22.173962	0.000924	20.806377
185.053211	-2.978400	3.838600	-11.432000	22.148791	0.000925	20.802512
186.049077	-2.990100	3.837600	-11.474000	22.154047	0.000926	20.811094
187.050962	-2.994500	3.838000	-11.491000	22.161349	0.000927	20.814137
188.050652	-3.009300	3.837500	-11.547000	22.184456	0.000926	20.793649
189.052215	-2.993800	3.837300	-11.487000	22.198388	0.000928	20.791477
190.052332	-3.004700	3.836500	-11.526000	22.213344	0.000928	20.798391
191.050993	-3.017000	3.836600	-11.573000	22.210874	0.000927	20.808720
192.051098	-3.030400	3.835400	-11.621000	22.228845	0.000928	20.809169
193.051607	-2.992500	3.836200	-11.477000	22.223085	0.000929	20.804351
194.057864	-2.987900	3.835900	-11.460000	22.216254	0.000929	20.799408
195.051423	-3.018800	3.835000	-11.576000	22.245441	0.000930	20.821993
196.052515	-3.001100	3.836300	-11.512000	22.245717	0.000929	20.830329
197.053309	-2.986200	3.836900	-11.457000	22.265003	0.000930	20.804122
198.056798	-3.007800	3.835500	-11.535000	22.258797	0.000932	20.803598
199.053266	-3.001600	3.835900	-11.511000	22.283193	0.000933	20.816171
200.054586	-3.008100	3.834500	-11.534000	22.281123	0.000932	20.813150
201.052770	-2.987900	3.835600	-11.460000	22.277758	0.000932	20.820213
202.053942	-2.983300	3.834900	-11.439000	22.286781	0.000933	20.824031
203.055176	-3.003900	3.834000	-11.515000	22.270878	0.000933	20.827548
204.059935	-3.016100	3.832600	-11.557000	22.296147	0.000934	20.796900
205.053581	-2.994700	3.834200	-11.481000	22.281715	0.000934	20.810898
206.058130	-2.991700	3.834200	-11.470000	22.291384	0.000936	20.823424
207.055998	-3.032400	3.832500	-11.621000	22.295816	0.000936	20.824069
208.054924	-3.006000	3.834300	-11.526000	22.311270	0.000936	20.812990
209.058262	-2.997800	3.833100	-11.490000	22.324674	0.000936	20.817404
210.055079	-2.994300	3.833300	-11.477000	22.304885	0.000937	20.818451
211.055184	-2.995400	3.832300	-11.478000	22.294914	0.000940	20.814157
212.061095	-3.005100	3.831600	-11.513000	22.321082	0.000937	20.824712
213.055047	-2.996200	3.831800	-11.480000	22.327237	0.000937	20.837514
214.053918	-2.993400	3.832700	-11.472000	22.338820	0.000938	20.834413
215.055265	-2.985300	3.832600	-11.440000	22.340441	0.000941	20.823234
216.055730	-2.997800	3.831800	-11.486000	22.343926	0.000939	20.829095
217.056345	-3.016300	3.831200	-11.555000	22.374280	0.000940	20.847162
218.056317	-2.984300	3.832100	-11.435000	22.363687	0.000940	20.841296
219.057654	-3.013800	3.828900	-11.539000	22.372282	0.000941	20.833307
220.058624	-2.993700	3.830200	-11.465000	22.389876	0.000939	20.840968
221.056154	-3.005200	3.831500	-11.513000	22.399894	0.000942	20.853370
222.059942	-2.999300	3.829400	-11.484000	22.418260	0.000941	20.839521
223.057926	-3.004100	3.829000	-11.502000	22.406991	0.000940	20.834399
224.056271	-2.999800	3.829500	-11.487000	22.420449	0.000941	20.836497
225.057013	-3.007100	3.828300	-11.511000	22.443548	0.000943	20.859153
226.060749	-3.015600	3.829600	-11.546000	22.457179	0.000943	20.840563
227.058944	-3.002700	3.829000	-11.496000	22.464130	0.000944	20.822394
228.059256	-3.001200	3.828200	-11.487000	22.447234	0.000944	20.847198
229.062148	-2.986700	3.828300	-11.433000	22.472702	0.000944	20.853737
230.060505	-2.990400	3.827100	-11.444000	22.454809	0.000942	20.839138
231.060709	-2.990400	3.827900	-11.446000	22.467293	0.000944	20.824613
232.061169	-2.982700	3.827900	-11.417000	22.471980	0.000945	20.831204
233.058763	-3.000600	3.827300	-11.483000	22.470555	0.000946	20.835940
234.059211	-3.012400	3.825900	-11.524000	22.453287	0.000942	20.856105
235.061488	-3.002800	3.826200	-11.488000	22.458718	0.000944	20.855380
236.062176	-2.985700	3.827700	-11.428000	22.457174	0.000946	20.846722
237.060853	-3.005800	3.826600	-11.501000	22.504594	0.000946	20.846322
238.064718	-3.009900	3.825900	-11.515000	22.490041	0.000947	20.852610
239.064688	-2.996900	3.826400	-11.467000	22.515307	0.000947	20.847568
240.060498	-2.998500	3.826200	-11.471000	22.538929	0.000947	20.850837
241.064443	-2.996700	3.824800	-11.461000	22.542543	0.000949	20.851612
242.064013	-3.000500	3.825900	-11.478000	22.563974	0.000948	20.818549
243.063610	-2.997300	3.826200	-11.467000	22.563275	0.000950	20.847245
244.066317	-3.016200	3.823700	-11.532000	22.563049	0.000950	20.851761
245.063899	-2.997700	3.824800	-11.464000	22.543466	0.000952	20.843053
246.065230	-2.990400	3.823900	-11.433000	22.553085	0.000949	20.842256
247.066021	-3.013000	3.822500	-11.517000	22.565744	0.000954	20.841183
248.068373	-2.987400	3.824400	-11.424000	22.589841	0.000952	20.861524
249.066458	-2.987800	3.823500	-11.423000	22.588319	0.000954	20.848621
250.066983	-2.975900	3.824300	-11.380000	22.593455	0.000953	20.876997
251.071827	-2.967900	3.824300	-11.348000	22.593183	0.000955	20.856810
252.070631	-3.002300	3.823800	-11.480000	22.625999	0.000956	20.867393
253.070502	-3.008400	3.822900	-11.499000	22.613266	0.000955	20.850374
254.071514	-3.013600	3.823300	-11.520000	22.617800	0.000955	20.857284
255.070730	-3.038000	3.822100	-11.610000	22.611398	0.000955	20.868889
256.071025	-3.002000	3.823100	-11.476000	22.618777	0.000956	20.863004
257.072656	-3.002900	3.823200	-11.479000	22.631010	0.000956	20.857240
258.070653	-2.985900	3.821800	-11.410000	22.627375	0.000957	20.863555
259.069615	-3.013300	3.821700	-11.513000	22.649451	0.000957	20.859589
260.072811	-3.006400	3.821500	-11.488000	22.649949	0.000961	20.841596
261.070915	-2.993300	3.821500	-11.438000	22.673945	0.000959	20.854252
262.073570	-3.014300	3.820800	-11.517000	22.654537	0.000960	20.852829
263.073339	-2.997200	3.819500	-11.446000	22.657853	0.000960	20.859944
264.074963	-3.021700	3.819900	-11.542000	22.693183	0.000961	20.858348
265.073922	-3.015100	3.819500	-11.514000	22.690942	0.000962	20.870802
266.076395	-3.011900	3.819200	-11.502000	22.703630	0.000962	20.873079
267.076162	-3.000500	3.819700	-11.459000	22.700041	0.000963	20.869958
268.076231	-2.992800	3.820700	-11.433000	22.703332	0.000964	20.862350
269.074156	-3.009600	3.819200	-11.494000	22.702212	0.000965	20.868814
270.075030	-3.015200	3.819100	-11.515000	22.720849	0.000965	20.875154
271.080337	-2.997800	3.818400	-11.446000	22.737293	0.000964	20.868393
272.075291	-3.029500	3.816900	-11.562000	22.727380	0.000965	20.862731
