LabVIEW Measurement	
Writer_Version	2
Reader_Version	2
Separator	Tab
Decimal_Separator	.
Multi_Headings	No
X_Columns	One
Time_Pref	Absolute
Operator	admin
Description	Clolumns are: time, Current, Voltage, Power, Battery Temp, and Chamber Temp
Date	2024/08/16
Time	13:06:06.104549407958984375
***End_of_Header***	
	
Channels	6						
Samples	1	1	1	1	1	1	
Date	2024/09/16	2024/09/16	2024/09/16	2024/09/16	2024/09/16	2024/09/16	
Time	09:37:22.9876704216003417969	09:37:23.0018110275268554688	09:37:23.0118031501770019531	09:37:22.9660353660583496094	09:37:22.9660353660583496094	09:37:22.9660353660583496094	
X_Dimension	Time	Time	Time	Time	Time	Time	
X0	0.0000000000000000E+0	0.0000000000000000E+0	0.0000000000000000E+0	0.0000000000000000E+0	0.0000000000000000E+0	0.0000000000000000E+0	
Delta_X	1.000000	1.000000	1.000000	1.000000	1.000000	1.000000	
***End_of_Header***							
X_Value	Untitled	Untitled 1	Untitled 2	Untitled 3	Untitled 4	Untitled 5	Comment
0.000000	0.024721	4.090000	0.101120	21.033569	0.000948	20.851042
0.997622	-2.997400	3.909600	-11.718000	21.044417	0.000950	20.857152
1.997356	-3.010700	3.901300	-11.745000	21.045188	0.000946	20.864560
2.998099	-2.991600	3.898000	-11.660000	21.060456	0.000948	20.866081
3.998710	-2.987600	3.893500	-11.631000	21.059527	0.000947	20.862307
4.995250	-2.980400	3.890600	-11.595000	21.051937	0.000947	20.856613
5.999330	-2.999500	3.888500	-11.662000	21.067384	0.000945	20.858312
6.998640	-3.016500	3.884400	-11.716000	21.067384	0.000943	20.863053
7.999294	-2.998800	3.884800	-11.649000	21.072667	0.000944	20.864070
8.997078	-2.995900	3.879800	-11.622000	21.063660	0.000944	20.873553
9.998326	-3.036700	3.877100	-11.773000	21.084957	0.000941	20.867354
11.000005	-2.977300	3.877600	-11.544000	21.086784	0.000942	20.885302
12.000739	-3.004500	3.873300	-11.636000	21.099420	0.000941	20.877552
13.001846	-3.002300	3.873100	-11.625000	21.089470	0.000939	20.875661
14.003001	-2.992300	3.871300	-11.583000	21.096279	0.000938	20.865403
14.999836	-3.011800	3.870300	-11.654000	21.105059	0.000937	20.858064
16.000047	-3.008200	3.868100	-11.635000	21.095198	0.000937	20.867166
16.999421	-3.012900	3.868700	-11.656000	21.098466	0.000935	20.867117
18.003441	-3.014800	3.867200	-11.657000	21.118622	0.000936	20.881587
18.999481	-3.012100	3.866300	-11.645000	21.116899	0.000937	20.884130
19.999870	-3.008600	3.864400	-11.626000	21.125451	0.000933	20.862340
21.000626	-2.992700	3.865500	-11.567000	21.124300	0.000933	20.885370
22.000006	-3.002500	3.864000	-11.600000	21.134803	0.000935	20.872643
22.999022	-2.996500	3.862800	-11.573000	21.149196	0.000935	20.878979
24.000906	-2.992300	3.862800	-11.558000	21.150484	0.000935	20.866044
25.003015	-3.002100	3.860100	-11.587000	21.160335	0.000932	20.883009
26.002349	-2.994400	3.862700	-11.566000	21.183832	0.000933	20.868108
27.000451	-3.028800	3.859200	-11.688000	21.163174	0.000933	20.879685
28.003511	-3.021700	3.859100	-11.660000	21.173103	0.000932	20.882979
29.004587	-3.014400	3.858900	-11.631000	21.180331	0.000934	20.876934
30.002861	-3.017200	3.856000	-11.632000	21.197691	0.000932	20.877704
31.004772	-2.991100	3.856500	-11.534000	21.200861	0.000931	20.871866
32.017673	-3.009600	3.855500	-11.603000	21.210859	0.000930	20.883764
33.004413	-3.002500	3.854900	-11.573000	21.210064	0.000930	20.869219
34.007293	-3.014400	3.854600	-11.618000	21.219085	0.000931	20.872553
35.007232	-3.001000	3.856100	-11.570000	21.216838	0.000930	20.882632
36.003185	-2.997300	3.854800	-11.552000	21.209624	0.000931	20.864986
37.007687	-2.992600	3.854100	-11.533000	21.226535	0.000931	20.894703
38.006894	-2.997400	3.852900	-11.547000	21.224362	0.000929	20.850332
39.004833	-3.002700	3.852800	-11.568000	21.232741	0.000930	20.855395
40.006274	-2.987200	3.853900	-11.512000	21.242190	0.000930	20.876701
41.008392	-3.019300	3.849900	-11.622000	21.251941	0.000931	20.878395
42.005227	-2.998400	3.850400	-11.545000	21.262813	0.000930	20.858452
43.010342	-3.028100	3.850200	-11.656000	21.262986	0.000930	20.875693
44.007048	-3.007500	3.851400	-11.583000	21.273640	0.000929	20.871653
45.004386	-2.993300	3.850600	-11.526000	21.279692	0.000928	20.837407
46.007302	-2.987200	3.849500	-11.497000	21.281588	0.000927	20.864432
47.008511	-3.004600	3.850700	-11.569000	21.301593	0.000928	20.855523
48.005600	-3.000400	3.847200	-11.542000	21.294533	0.000928	20.853201
49.007994	-3.004000	3.849200	-11.562000	21.293481	0.000929	20.864951
50.005978	-3.005400	3.847100	-11.562000	21.316907	0.000929	20.873213
51.003886	-2.985100	3.848600	-11.487000	21.322066	0.000929	20.853720
52.004933	-2.981400	3.847900	-11.470000	21.318201	0.000929	20.845111
53.007052	-3.010000	3.847200	-11.579000	21.320768	0.000926	20.843412
54.006322	-3.006400	3.847400	-11.564000	21.327107	0.000929	20.821306
55.012319	-2.999500	3.845600	-11.533000	21.348681	0.000928	20.847630
56.008045	-2.992700	3.845400	-11.507000	21.335909	0.000927	20.851448
57.008690	-3.004200	3.844300	-11.548000	21.349727	0.000929	20.858160
58.009643	-2.987200	3.845800	-11.487000	21.355943	0.000929	20.843042
59.008984	-2.996900	3.842900	-11.515000	21.347382	0.000927	20.844909
60.010653	-3.015000	3.844400	-11.590000	21.371982	0.000927	20.849132
61.011239	-3.013500	3.842900	-11.580000	21.407599	0.000925	20.850628
62.011815	-3.024600	3.843100	-11.623000	21.387646	0.000928	20.844415
63.019935	-3.023600	3.843300	-11.620000	21.410714	0.000929	20.830512
64.011907	-3.010600	3.843200	-11.569000	21.402959	0.000926	20.838399
65.020914	-3.005600	3.843100	-11.550000	21.395480	0.000926	20.835658
66.015770	-2.976400	3.843200	-11.438000	21.390020	0.000930	20.866230
67.015334	-3.005900	3.843000	-11.551000	21.446962	0.000926	20.834537
68.014455	-2.974800	3.842500	-11.429000	21.439701	0.000927	20.854298
69.023929	-3.006000	3.842000	-11.547000	21.438279	0.000928	20.823953
70.023349	-2.998400	3.841300	-11.517000	21.475568	0.000926	20.835184
71.015994	-3.026000	3.839900	-11.619000	21.471377	0.000927	20.830043
72.011438	-3.019800	3.841100	-11.598000	21.478204	0.000927	20.834977
73.016399	-3.024200	3.838900	-11.607000	21.464288	0.000930	20.845709
74.011352	-2.991700	3.841600	-11.492000	21.482819	0.000928	20.825370
75.015238	-3.002800	3.839500	-11.526000	21.492696	0.000928	20.825771
76.017939	-3.011200	3.838100	-11.556000	21.500821	0.000929	20.844331
77.022529	-2.994500	3.838900	-11.493000	21.495732	0.000931	20.834498
78.018607	-3.002600	3.839500	-11.527000	21.511493	0.000930	20.821819
79.026821	-3.003400	3.838900	-11.529000	21.507381	0.000928	20.834300
80.019912	-3.005700	3.838000	-11.535000	21.520121	0.000930	20.812435
81.012203	-3.009900	3.836800	-11.548000	21.516824	0.000929	20.839007
82.019937	-2.995400	3.837500	-11.494000	21.541390	0.000930	20.829924
83.022168	-2.987200	3.837500	-11.462000	21.549174	0.000931	20.839609
84.018747	-2.986000	3.836800	-11.455000	21.560615	0.000931	20.829721
85.019337	-3.008400	3.836600	-11.540000	21.559741	0.000928	20.803243
86.016329	-2.990200	3.837900	-11.476000	21.568621	0.000932	20.828250
87.018857	-2.987600	3.836600	-11.461000	21.577713	0.000928	20.811269
88.028874	-2.999400	3.834800	-11.500000	21.586814	0.000932	20.831756
89.024447	-3.014400	3.834400	-11.558000	21.595866	0.000930	20.835599
90.024437	-3.007900	3.835400	-11.535000	21.615268	0.000932	20.811867
91.018154	-3.020700	3.835300	-11.584000	21.602278	0.000932	20.812143
92.018582	-3.000600	3.835700	-11.509000	21.586192	0.000930	20.810746
93.017392	-3.008800	3.833400	-11.532000	21.597016	0.000931	20.839594
94.019668	-3.004400	3.834000	-11.517000	21.627637	0.000931	20.831830
95.020953	-2.983900	3.833900	-11.440000	21.637740	0.000932	20.812544
96.020942	-2.979100	3.834400	-11.423000	21.622055	0.000932	20.813442
97.025326	-2.985200	3.833300	-11.441000	21.646293	0.000933	20.800240
98.023702	-3.013800	3.832500	-11.549000	21.637463	0.000934	20.819853
99.023410	-2.987500	3.833900	-11.452000	21.655024	0.000933	20.813245
100.021282	-3.004600	3.832500	-11.514000	21.680184	0.000934	20.824200
101.025784	-3.016800	3.831000	-11.556000	21.674504	0.000933	20.821834
102.031050	-3.011700	3.832100	-11.540000	21.695647	0.000934	20.806958
103.026310	-2.988200	3.832600	-11.451000	21.680861	0.000935	20.826299
104.028822	-2.991500	3.831000	-11.459000	21.705650	0.000935	20.819340
105.025008	-2.985800	3.832300	-11.441000	21.706519	0.000935	20.811674
106.021701	-2.991700	3.830600	-11.458000	21.729532	0.000934	20.810523
107.022758	-3.012100	3.830600	-11.538000	21.747411	0.000935	20.800443
108.028155	-2.992100	3.831100	-11.462000	21.732256	0.000936	20.794284
109.033454	-2.993300	3.829900	-11.463000	21.742659	0.000936	20.808489
110.028560	-2.981300	3.832500	-11.424000	21.730065	0.000934	20.804893
111.025025	-2.990100	3.830800	-11.451000	21.744530	0.000937	20.807516
112.021943	-3.004300	3.829900	-11.505000	21.749139	0.000936	20.818293
113.028105	-3.003500	3.827800	-11.496000	21.763233	0.000936	20.810588
114.028663	-2.995100	3.829700	-11.469000	21.746479	0.000939	20.803303
115.029978	-3.011600	3.828600	-11.530000	21.781764	0.000936	20.792625
116.031623	-2.989000	3.827800	-11.441000	21.765207	0.000937	20.801184
117.033809	-2.992800	3.828700	-11.458000	21.761842	0.000936	20.805876
118.026808	-3.003700	3.828200	-11.497000	21.766308	0.000938	20.812243
119.035882	-2.986600	3.828500	-11.434000	21.768849	0.000937	20.801984
120.033587	-3.024100	3.826700	-11.571000	21.776558	0.000937	20.787414
121.028742	-3.010500	3.827000	-11.520000	21.787380	0.000938	20.809625
122.034767	-3.008700	3.826300	-11.510000	21.783916	0.000939	20.805684
123.031926	-3.039200	3.823900	-11.620000	21.827677	0.000938	20.830517
124.032837	-3.018000	3.826600	-11.548000	21.834512	0.000941	20.814599
125.034541	-2.965500	3.828400	-11.352000	21.864879	0.000939	20.817019
126.033376	-3.003300	3.826100	-11.489000	21.841021	0.000939	20.801673
127.028358	-3.009100	3.826900	-11.514000	21.866853	0.000940	20.784381
128.034923	-2.978100	3.826900	-11.395000	21.887253	0.000940	20.798162
129.032477	-3.000200	3.825200	-11.474000	21.881341	0.000940	20.796512
130.027528	-3.017300	3.824500	-11.539000	21.902939	0.000942	20.793475
131.036978	-2.996100	3.826200	-11.463000	21.919642	0.000942	20.794072
132.028581	-3.016400	3.824400	-11.535000	21.910449	0.000940	20.802414
133.027367	-3.004300	3.823200	-11.486000	21.915157	0.000941	20.800962
134.030467	-2.988300	3.825100	-11.430000	21.912739	0.000942	20.770567
135.031032	-2.995800	3.824400	-11.454000	21.933487	0.000944	20.794181
136.030931	-2.988500	3.824900	-11.429000	21.948423	0.000942	20.803916
137.034974	-2.986700	3.824300	-11.421000	21.935807	0.000943	20.790338
138.027810	-2.998100	3.824100	-11.464000	21.942862	0.000946	20.784125
139.032471	-2.986700	3.823200	-11.418000	21.948897	0.000944	20.789691
140.032243	-3.007900	3.822300	-11.496000	21.952765	0.000944	20.801624
141.034426	-2.990900	3.822500	-11.431000	21.951793	0.000945	20.787849
142.033136	-2.995700	3.823300	-11.453000	21.976099	0.000948	20.771402
143.033046	-2.961600	3.823500	-11.322000	22.002728	0.000945	20.762496
144.034380	-3.002200	3.821800	-11.471000	21.993032	0.000946	20.785982
145.032345	-2.989200	3.822700	-11.426000	21.992332	0.000945	20.773901
146.032621	-2.987200	3.820700	-11.411000	21.997715	0.000948	20.787825
147.030890	-2.994000	3.821500	-11.440000	22.002604	0.000949	20.789400
148.032681	-2.987000	3.822200	-11.415000	22.006621	0.000947	20.773506
149.029078	-2.997000	3.819900	-11.447000	22.023450	0.000951	20.776603
150.028858	-3.010800	3.819800	-11.498000	22.039978	0.000951	20.764225
151.031284	-3.005500	3.821000	-11.483000	22.030930	0.000951	20.779349
152.032276	-2.998500	3.820600	-11.455000	22.051997	0.000951	20.775309
153.035459	-3.003000	3.819700	-11.469000	22.060744	0.000951	20.785489
154.033437	-3.001100	3.818600	-11.459000	22.050004	0.000953	20.782797
155.034573	-3.021500	3.818100	-11.535000	22.065782	0.000952	20.767298
156.038234	-3.014900	3.818200	-11.511000	22.087243	0.000954	20.772662
157.054898	-2.999400	3.819800	-11.456000	22.087949	0.000952	20.776213
158.036265	-3.040400	3.816600	-11.602000	22.101802	0.000953	20.763055
159.040312	-3.007000	3.818100	-11.480000	22.110726	0.000955	20.760136
160.042445	-3.008400	3.818000	-11.485000	22.085649	0.000954	20.779127
161.034904	-3.006100	3.816500	-11.472000	22.080790	0.000953	20.769994
162.043647	-2.984000	3.817800	-11.391000	22.093474	0.000956	20.778900
163.038880	-3.000200	3.817700	-11.453000	22.105763	0.000954	20.763702
164.038630	-2.971600	3.818500	-11.346000	22.116380	0.000957	20.771012
165.044919	-3.014200	3.816000	-11.502000	22.109074	0.000955	20.786457
166.044570	-2.992700	3.816900	-11.422000	22.123430	0.000954	20.762897
167.042737	-2.996300	3.815800	-11.432000	22.131905	0.000956	20.747674
168.046413	-2.988900	3.817000	-11.407000	22.162640	0.000958	20.763746
169.039401	-3.005900	3.815500	-11.468000	22.187108	0.000957	20.771174
170.038370	-2.976500	3.816200	-11.357000	22.190774	0.000959	20.771051
171.046049	-2.988300	3.815700	-11.400000	22.190596	0.000959	20.758071
172.043142	-3.004200	3.816300	-11.464000	22.176008	0.000960	20.779502
173.038678	-3.011900	3.815900	-11.492000	22.214245	0.000959	20.770843
174.045467	-2.992200	3.815900	-11.417000	22.227771	0.000960	20.767791
175.041238	-3.031900	3.813400	-11.561000	22.217347	0.000962	20.770157
176.040461	-3.004000	3.814400	-11.457000	22.217347	0.000961	20.767786
177.046887	-2.986300	3.815600	-11.394000	22.197304	0.000959	20.771426
178.043368	-2.989200	3.815500	-11.405000	22.206401	0.000958	20.782905
179.040604	-2.988200	3.814000	-11.395000	22.224816	0.000962	20.773841
180.048463	-2.994900	3.813200	-11.419000	22.191685	0.000961	20.772912
181.042779	-2.991900	3.811300	-11.401000	22.195346	0.000962	20.770887
182.042091	-2.985700	3.813200	-11.383000	22.225832	0.000960	20.768694
183.048126	-3.008800	3.813000	-11.471000	22.236102	0.000963	20.754321
184.045630	-2.980000	3.814000	-11.365000	22.251952	0.000964	20.771613
185.042925	-3.013100	3.811400	-11.482000	22.254966	0.000963	20.772260
186.047870	-3.012700	3.811000	-11.480000	22.241129	0.000963	20.756035
187.049244	-2.989300	3.812400	-11.396000	22.247783	0.000964	20.749421
188.044806	-2.991600	3.811400	-11.401000	22.244838	0.000966	20.769707
189.048617	-2.981700	3.811700	-11.364000	22.270509	0.000963	20.760322
190.047311	-3.006200	3.811300	-11.455000	22.274573	0.000966	20.770556
191.044816	-3.001800	3.811800	-11.441000	22.291295	0.000965	20.758376
192.047747	-3.005600	3.809700	-11.449000	22.307642	0.000966	20.751510
193.049827	-2.995800	3.810400	-11.413000	22.303158	0.000967	20.745124
194.049754	-2.982000	3.810500	-11.362000	22.324038	0.000967	20.776938
195.050522	-3.009200	3.809300	-11.462000	22.335979	0.000966	20.753807
196.051665	-3.019100	3.807800	-11.495000	22.343477	0.000968	20.753254
197.049551	-2.990600	3.809900	-11.393000	22.359300	0.000968	20.741597
198.055237	-2.982100	3.809400	-11.359000	22.352399	0.000969	20.759818
199.048884	-2.999300	3.808000	-11.421000	22.363315	0.000970	20.744669
200.046964	-3.025300	3.807400	-11.517000	22.371216	0.000970	20.734089
201.052473	-2.996400	3.809000	-11.412000	22.395261	0.000972	20.756272
202.049551	-3.005100	3.807400	-11.441000	22.394965	0.000971	20.759295
203.054089	-3.001400	3.808200	-11.429000	22.398433	0.000972	20.746171
204.052523	-3.018800	3.806300	-11.489000	22.413880	0.000969	20.737932
205.052790	-3.021400	3.805200	-11.495000	22.425466	0.000973	20.746690
206.050382	-3.004700	3.807000	-11.436000	22.435710	0.000971	20.747939
207.052567	-3.002800	3.806800	-11.430000	22.419138	0.000972	20.750310
208.052732	-2.992300	3.805200	-11.385000	22.413658	0.000973	20.766634
209.049249	-3.013000	3.806700	-11.469000	22.419439	0.000975	20.764837
210.056035	-3.003800	3.806200	-11.432000	22.413934	0.000975	20.744625
211.048755	-3.005500	3.805700	-11.437000	22.418270	0.000974	20.750389
212.047816	-2.993000	3.806600	-11.392000	22.438679	0.000976	20.734317
213.052299	-3.006400	3.804200	-11.436000	22.435784	0.000975	20.757497
214.055169	-2.980000	3.806400	-11.343000	22.456172	0.000976	20.745672
215.050208	-2.998900	3.805800	-11.412000	22.446777	0.000976	20.725357
216.050598	-3.011600	3.804500	-11.457000	22.480620	0.000977	20.737438
217.049609	-3.009400	3.804700	-11.449000	22.476428	0.000980	20.730869
218.053048	-3.016100	3.803900	-11.472000	22.468630	0.000979	20.757675
219.051189	-3.010100	3.804000	-11.450000	22.464996	0.000979	20.746448
220.049869	-3.001200	3.803000	-11.411000	22.471249	0.000979	20.740856
221.051668	-2.992700	3.804300	-11.384000	22.477005	0.000979	20.767484
222.049619	-2.994200	3.803500	-11.386000	22.476630	0.000980	20.759048
223.054033	-2.985300	3.802600	-11.350000	22.490286	0.000980	20.750913
224.052640	-3.006100	3.802900	-11.431000	22.507360	0.000981	20.726285
225.053897	-3.014500	3.801700	-11.458000	22.521189	0.000982	20.744403
226.054888	-3.008100	3.802600	-11.438000	22.527896	0.000982	20.753965
227.054199	-3.011500	3.803300	-11.453000	22.538109	0.000982	20.743331
228.052768	-3.002100	3.801500	-11.412000	22.547676	0.000982	20.730153
229.053557	-2.997900	3.801100	-11.394000	22.537562	0.000985	20.752266
230.052137	-2.981400	3.802000	-11.334000	22.530386	0.000983	20.742235
231.053612	-3.013100	3.800000	-11.448000	22.521396	0.000984	20.739869
232.052647	-2.995900	3.801000	-11.387000	22.523359	0.000984	20.738041
233.054096	-3.026000	3.798800	-11.492000	22.503479	0.000986	20.740891
234.054075	-2.990000	3.800000	-11.361000	22.536097	0.000986	20.737522
235.056222	-2.996800	3.800200	-11.388000	22.525011	0.000987	20.743963
236.056492	-2.994200	3.799200	-11.374000	22.522969	0.000986	20.717261
237.059460	-2.987400	3.799700	-11.350000	22.553890	0.000987	20.731635
238.056481	-3.020300	3.797600	-11.469000	22.586931	0.000987	20.728691
239.057714	-3.015200	3.797600	-11.450000	22.577236	0.000989	20.740318
240.056672	-2.980600	3.800400	-11.327000	22.595349	0.000990	20.725742
241.062932	-2.984000	3.798800	-11.335000	22.588598	0.000989	20.733680
242.059503	-3.004100	3.798200	-11.409000	22.629286	0.000990	20.732707
243.059892	-3.002600	3.798400	-11.404000	22.633196	0.000991	20.715759
244.066208	-3.002500	3.798000	-11.403000	22.632151	0.000992	20.739370
245.060627	-2.993100	3.798200	-11.368000	22.638877	0.000992	20.740417
246.059047	-2.990200	3.798300	-11.355000	22.637333	0.000993	20.744087
247.063085	-2.994400	3.797400	-11.369000	22.645731	0.000992	20.724522
248.059842	-3.010800	3.796000	-11.428000	22.621011	0.000994	20.732954
249.062999	-2.991300	3.796600	-11.355000	22.640248	0.000994	20.747006
250.063633	-3.019900	3.795600	-11.460000	22.661200	0.000995	20.725317
251.063376	-2.987900	3.795500	-11.340000	22.636909	0.000996	20.741291
252.063298	-2.977600	3.797200	-11.306000	22.641589	0.000993	20.711838
253.070364	-2.998300	3.795100	-11.378000	22.635553	0.000996	20.730449
254.064340	-2.999400	3.795200	-11.382000	22.663286	0.000997	20.739261
255.066674	-2.996100	3.795500	-11.371000	22.665579	0.000998	20.742032
256.068462	-3.002600	3.793900	-11.391000	22.685756	0.000998	20.744225
257.064752	-2.988400	3.795100	-11.340000	22.693527	0.000996	20.746319
258.068046	-3.006600	3.793500	-11.405000	22.720257	0.000998	20.748912
259.068251	-2.976400	3.793500	-11.290000	22.707950	0.000999	20.737058
260.065276	-3.003100	3.793300	-11.390000	22.727580	0.001000	20.737280
261.065835	-2.998300	3.793300	-11.372000	22.758421	0.001000	20.738777
262.068617	-2.988300	3.792900	-11.334000	22.765644	0.001002	20.748858
263.067012	-2.995400	3.792500	-11.359000	22.778321	0.001002	20.722200
264.064003	-3.003200	3.792600	-11.389000	22.792249	0.001002	20.743267
265.070434	-2.992200	3.792300	-11.346000	22.784474	0.001002	20.748754
266.067859	-3.015200	3.791200	-11.430000	22.787408	0.001003	20.719449
267.068501	-3.008200	3.791000	-11.404000	22.802855	0.001002	20.736821
268.071387	-2.984500	3.791700	-11.315000	22.822709	0.001003	20.747702
269.068725	-3.022200	3.789100	-11.451000	22.834513	0.001004	20.726809
270.067080	-2.982100	3.793200	-11.310000	22.842357	0.001005	20.727554
271.071517	-3.012700	3.789900	-11.417000	22.820984	0.001006	20.705668
272.068436	-3.011700	3.790300	-11.414000	22.861885	0.001005	20.730997
