LabVIEW Measurement	
Writer_Version	2
Reader_Version	2
Separator	Tab
Decimal_Separator	.
Multi_Headings	No
X_Columns	One
Time_Pref	Absolute
Operator	admin
Description	Clolumns are: time, Current, Voltage, Power, Battery Temp, and Chamber Temp
Date	2024/08/16
Time	13:06:06.104549407958984375
***End_of_Header***	
	
Channels	6						
Samples	1	1	1	1	1	1	
Date	2024/09/11	2024/09/11	2024/09/11	2024/09/11	2024/09/11	2024/09/11	
Time	05:27:22.8290858268737792969	05:27:22.834056854248046875	05:27:22.8391375541687011719	05:27:22.8136248588562011719	05:27:22.8136248588562011719	05:27:22.8136248588562011719	
X_Dimension	Time	Time	Time	Time	Time	Time	
X0	0.0000000000000000E+0	0.0000000000000000E+0	0.0000000000000000E+0	0.0000000000000000E+0	0.0000000000000000E+0	0.0000000000000000E+0	
Delta_X	1.000000	1.000000	1.000000	1.000000	1.000000	1.000000	
***End_of_Header***							
X_Value	Untitled	Untitled 1	Untitled 2	Untitled 3	Untitled 4	Untitled 5	Comment
0.000000	0.026274	4.097600	0.107690	20.968601	0.000902	20.693600
1.000414	-3.000700	3.920200	-11.762000	20.968087	0.000902	20.705415
2.008121	-3.002100	3.913600	-11.746000	20.969754	0.000900	20.699495
3.001045	-2.996800	3.907900	-11.710000	20.983536	0.000899	20.703323
4.002476	-2.998600	3.904400	-11.706000	20.958762	0.000897	20.683285
5.002706	-2.997700	3.901200	-11.693000	20.988008	0.000897	20.686931
6.004043	-3.006600	3.897800	-11.718000	20.975887	0.000899	20.699940
7.002962	-3.002900	3.895700	-11.698000	20.979607	0.000896	20.696073
8.003157	-3.012100	3.893600	-11.727000	20.984167	0.000897	20.672656
9.005622	-2.999500	3.891500	-11.671000	21.001668	0.000895	20.679730
10.005276	-2.996900	3.891200	-11.661000	20.976542	0.000895	20.692059
11.004608	-3.002500	3.888900	-11.676000	21.003286	0.000895	20.683719
12.005277	-2.994100	3.887600	-11.639000	20.983810	0.000895	20.697906
13.005168	-3.012200	3.884000	-11.697000	20.977026	0.000892	20.707717
14.005153	-2.976800	3.885600	-11.566000	21.007284	0.000891	20.704315
15.007238	-3.025500	3.880400	-11.739000	21.008168	0.000890	20.704251
16.005368	-3.013400	3.880200	-11.691000	21.012493	0.000889	20.697197
17.007901	-2.991900	3.880900	-11.610000	21.021916	0.000890	20.718951
18.009828	-2.969200	3.879500	-11.517000	21.021368	0.000889	20.712239
19.005972	-3.005700	3.876400	-11.650000	21.028342	0.000891	20.701195
20.010152	-2.975300	3.877900	-11.536000	21.033288	0.000890	20.685752
21.006646	-3.002900	3.875900	-11.638000	21.033728	0.000890	20.702315
22.006906	-2.980500	3.876400	-11.553000	21.034261	0.000888	20.707590
23.009235	-2.989200	3.875100	-11.582000	21.038732	0.000887	20.695940
24.010417	-2.997400	3.874600	-11.612000	21.061985	0.000886	20.707819
25.010622	-3.005900	3.872100	-11.638000	21.058627	0.000885	20.700193
26.007677	-2.989100	3.873000	-11.575000	21.069506	0.000888	20.703962
27.008223	-3.012700	3.871900	-11.664000	21.053887	0.000886	20.714419
28.009569	-2.994800	3.872700	-11.595000	21.073396	0.000883	20.694576
29.011205	-3.011700	3.869900	-11.653000	21.068059	0.000884	20.714844
30.007487	-3.005800	3.869900	-11.632000	21.094386	0.000883	20.708459
31.008272	-3.001100	3.869400	-11.610000	21.102982	0.000884	20.709946
32.008125	-3.003500	3.867200	-11.612000	21.092221	0.000885	20.730003
33.008047	-2.987400	3.868800	-11.556000	21.109696	0.000884	20.718559
34.014595	-2.999200	3.866700	-11.596000	21.099756	0.000883	20.710038
35.008111	-2.991000	3.867300	-11.566000	21.129776	0.000883	20.717307
36.009159	-3.008500	3.867500	-11.634000	21.117901	0.000883	20.727241
37.008328	-3.027500	3.865800	-11.702000	21.130782	0.000884	20.708830
38.009360	-2.971600	3.865500	-11.485000	21.126091	0.000882	20.712673
39.010843	-2.972000	3.865600	-11.488000	21.128329	0.000882	20.695944
40.010365	-2.992200	3.863100	-11.558000	21.143947	0.000883	20.725794
41.010330	-2.978900	3.864500	-11.511000	21.168532	0.000881	20.719091
42.010880	-2.967100	3.864700	-11.465000	21.175364	0.000883	20.704113
43.011388	-2.970300	3.863400	-11.474000	21.172275	0.000881	20.708136
44.015389	-2.992500	3.863400	-11.557000	21.193424	0.000880	20.709378
45.014441	-3.019600	3.861200	-11.659000	21.202611	0.000881	20.704817
46.012316	-2.991000	3.862200	-11.551000	21.190605	0.000881	20.710825
47.011574	-2.995400	3.861700	-11.566000	21.225655	0.000881	20.724078
48.013390	-3.003900	3.859900	-11.592000	21.208650	0.000879	20.721291
49.012788	-3.004700	3.861000	-11.600000	21.219494	0.000880	20.722655
50.018113	-3.014400	3.859800	-11.633000	21.255760	0.000881	20.713890
51.013034	-2.985400	3.859300	-11.520000	21.227747	0.000880	20.703409
52.014418	-3.003500	3.860000	-11.592000	21.258687	0.000881	20.710654
53.013570	-3.000000	3.859600	-11.578000	21.249598	0.000880	20.701561
54.012961	-2.982600	3.861000	-11.514000	21.266246	0.000881	20.701146
55.022557	-3.009100	3.858200	-11.609000	21.275554	0.000881	20.709510
56.025602	-3.009600	3.857500	-11.609000	21.285873	0.000880	20.746389
57.016892	-2.993600	3.858700	-11.550000	21.296906	0.000879	20.706689
58.015357	-3.033300	3.856500	-11.697000	21.312038	0.000881	20.725623
59.014806	-3.021800	3.855000	-11.647000	21.335491	0.000879	20.717317
60.016494	-3.002900	3.857200	-11.582000	21.320799	0.000880	20.718739
61.015591	-3.004000	3.856700	-11.584000	21.334773	0.000878	20.732720
62.014366	-2.983200	3.856600	-11.503000	21.357634	0.000879	20.730462
63.015242	-3.001700	3.856400	-11.575000	21.365045	0.000879	20.716540
64.015220	-3.012800	3.853700	-11.609000	21.354717	0.000879	20.705731
65.015578	-2.993300	3.855000	-11.537000	21.379844	0.000878	20.725182
66.017665	-2.995000	3.855200	-11.545000	21.373429	0.000877	20.732989
67.016262	-3.023800	3.853300	-11.651000	21.393358	0.000880	20.719737
68.018010	-3.006300	3.854000	-11.585000	21.380367	0.000878	20.719541
69.018501	-2.992900	3.855100	-11.536000	21.386528	0.000877	20.734241
70.020640	-3.023400	3.853500	-11.649000	21.398287	0.000879	20.717082
71.022345	-3.009300	3.853000	-11.592000	21.404365	0.000877	20.736915
72.020119	-3.000700	3.852600	-11.559000	21.401278	0.000879	20.721971
73.022465	-3.019500	3.853400	-11.633000	21.437123	0.000880	20.732706
74.019844	-3.005800	3.852000	-11.578000	21.428871	0.000878	20.733458
75.021094	-2.998400	3.852300	-11.550000	21.441920	0.000881	20.729919
76.023930	-3.010000	3.852100	-11.593000	21.445335	0.000882	20.729068
77.023108	-2.984900	3.853500	-11.501000	21.417688	0.000878	20.734123
78.020993	-2.990800	3.852100	-11.520000	21.442370	0.000879	20.729420
79.020801	-3.019200	3.850300	-11.624000	21.448843	0.000881	20.735897
80.022209	-3.015000	3.850200	-11.606000	21.472087	0.000878	20.723593
81.023483	-3.019100	3.850200	-11.623000	21.467519	0.000880	20.719022
82.024845	-2.997900	3.851100	-11.545000	21.468599	0.000881	20.747605
83.023019	-2.995100	3.851100	-11.534000	21.502630	0.000882	20.735188
84.026658	-2.994200	3.849600	-11.526000	21.474139	0.000883	20.730388
85.024445	-3.017900	3.848300	-11.613000	21.497867	0.000880	20.715722
86.024034	-2.994400	3.849800	-11.527000	21.529117	0.000880	20.729449
87.027722	-2.987600	3.849900	-11.499000	21.522229	0.000879	20.729195
88.024370	-2.973700	3.850100	-11.447000	21.548896	0.000880	20.754458
89.025136	-3.001700	3.847800	-11.548000	21.527075	0.000880	20.731199
90.026045	-3.004500	3.847400	-11.558000	21.567181	0.000879	20.731976
91.024464	-2.981800	3.848600	-11.475000	21.563317	0.000881	20.739964
92.026149	-2.995400	3.848100	-11.525000	21.571553	0.000882	20.730661
93.029078	-3.004000	3.847200	-11.555000	21.573570	0.000882	20.742164
94.025670	-3.001100	3.846300	-11.541000	21.570883	0.000882	20.740423
95.027935	-2.985300	3.848400	-11.485000	21.594379	0.000882	20.740702
96.026202	-2.986600	3.847500	-11.490000	21.594345	0.000883	20.744461
97.026959	-3.010300	3.845300	-11.573000	21.597550	0.000881	20.728227
98.030124	-3.005000	3.846000	-11.556000	21.612883	0.000884	20.742149
99.028976	-2.996300	3.846600	-11.524000	21.607842	0.000883	20.754174
100.028594	-2.992400	3.846200	-11.508000	21.626272	0.000885	20.756496
101.026488	-2.992600	3.847000	-11.511000	21.652029	0.000885	20.739597
102.027313	-2.998400	3.845900	-11.530000	21.682762	0.000882	20.737163
103.029378	-2.992400	3.843400	-11.499000	21.626296	0.000882	20.750357
104.033734	-2.995200	3.844800	-11.515000	21.661431	0.000885	20.754697
105.029647	-3.008100	3.843200	-11.560000	21.687065	0.000884	20.764230
106.029875	-2.990000	3.843700	-11.492000	21.692604	0.000885	20.761238
107.030005	-3.009700	3.843800	-11.568000	21.664895	0.000885	20.741093
108.029998	-3.006700	3.844100	-11.557000	21.669501	0.000884	20.745229
109.029300	-2.992600	3.841800	-11.496000	21.687417	0.000884	20.741347
110.031046	-2.990600	3.842900	-11.492000	21.682571	0.000886	20.743611
111.033165	-2.987900	3.843400	-11.483000	21.692252	0.000886	20.764205
112.031414	-2.976400	3.844300	-11.440000	21.700771	0.000886	20.759454
113.032903	-2.986700	3.844300	-11.480000	21.731200	0.000887	20.743914
114.035805	-3.003700	3.842300	-11.540000	21.706612	0.000887	20.744437
115.033856	-2.978900	3.842300	-11.445000	21.739220	0.000886	20.752415
116.032821	-3.005700	3.841400	-11.545000	21.714681	0.000886	20.753935
117.031886	-3.003700	3.841000	-11.535000	21.753824	0.000884	20.755177
118.031639	-3.000800	3.842000	-11.528000	21.760979	0.000886	20.765183
119.032506	-2.997200	3.841600	-11.512000	21.767743	0.000886	20.775273
120.036609	-2.996700	3.839600	-11.503000	21.784105	0.000887	20.766518
121.033356	-3.027000	3.840300	-11.623000	21.795538	0.000888	20.784600
122.034381	-3.003500	3.840300	-11.533000	21.809579	0.000887	20.750763
123.034685	-2.989100	3.839700	-11.477000	21.818449	0.000888	20.778132
124.035740	-2.984500	3.841500	-11.462000	21.822991	0.000890	20.757074
125.040958	-3.009600	3.839700	-11.555000	21.822312	0.000892	20.782473
126.036432	-2.986300	3.840800	-11.468000	21.834106	0.000888	20.766777
127.038384	-2.993200	3.840200	-11.492000	21.845393	0.000889	20.756736
128.036863	-3.006400	3.840000	-11.543000	21.822082	0.000891	20.782244
129.037758	-2.993000	3.839100	-11.489000	21.842550	0.000891	20.773806
130.036973	-3.023300	3.838000	-11.601000	21.828216	0.000891	20.772736
131.037552	-2.990700	3.839600	-11.480000	21.873152	0.000891	20.765081
132.036815	-3.007300	3.837400	-11.538000	21.869240	0.000893	20.786296
133.040802	-3.010300	3.838000	-11.553000	21.884814	0.000889	20.763004
134.037833	-3.010800	3.837700	-11.553000	21.850340	0.000893	20.774491
135.038776	-3.008400	3.837400	-11.543000	21.876409	0.000892	20.771661
136.042572	-2.989200	3.838200	-11.472000	21.878050	0.000893	20.765243
137.039048	-3.002400	3.837000	-11.519000	21.872136	0.000894	20.769281
138.042114	-3.003400	3.837000	-11.522000	21.890308	0.000893	20.766133
139.038349	-3.016900	3.835600	-11.571000	21.904104	0.000892	20.772829
140.039980	-3.014400	3.836400	-11.563000	21.896515	0.000895	20.777561
141.039811	-2.999500	3.836900	-11.507000	21.931339	0.000895	20.787763
142.038700	-3.004300	3.837800	-11.528000	21.944251	0.000894	20.785041
143.039246	-3.001100	3.835700	-11.510000	21.952548	0.000895	20.773905
144.038374	-3.011800	3.836800	-11.555000	21.961914	0.000893	20.779014
145.039245	-3.004900	3.834800	-11.522000	21.960200	0.000896	20.785358
146.040996	-2.996200	3.835400	-11.490000	21.975323	0.000896	20.773470
147.043274	-3.007200	3.834100	-11.529000	21.999602	0.000898	20.770748
148.040151	-2.995500	3.835700	-11.488000	21.991975	0.000895	20.777337
149.040894	-3.019700	3.833400	-11.573000	22.012440	0.000894	20.778383
150.039791	-3.004900	3.832700	-11.516000	22.030902	0.000897	20.804926
151.042349	-3.003200	3.833800	-11.513000	22.018383	0.000897	20.783858
152.042295	-2.993700	3.834200	-11.477000	22.038701	0.000897	20.791396
153.042294	-2.990600	3.833500	-11.464000	22.031186	0.000896	20.801891
154.040864	-3.006400	3.832500	-11.520000	22.054101	0.000898	20.782631
155.041915	-2.990700	3.833100	-11.461000	22.051030	0.000900	20.801368
156.042033	-3.010400	3.832100	-11.535000	22.049307	0.000898	20.801539
157.043661	-2.979300	3.833600	-11.420000	22.060879	0.000900	20.772821
158.044230	-2.985300	3.833500	-11.443000	22.082729	0.000899	20.803705
159.043445	-3.016000	3.831900	-11.556000	22.093672	0.000901	20.796167
160.045646	-2.984800	3.831600	-11.434000	22.106215	0.000900	20.786440
161.046096	-3.007100	3.830600	-11.518000	22.094619	0.000900	20.779572
162.047085	-2.994100	3.831300	-11.470000	22.115800	0.000901	20.791294
163.051369	-2.989200	3.832000	-11.452000	22.116713	0.000904	20.798372
164.048482	-3.028700	3.829100	-11.595000	22.106074	0.000902	20.812377
165.050054	-2.999900	3.830300	-11.489000	22.129134	0.000902	20.814126
166.049187	-2.993300	3.831500	-11.467000	22.141995	0.000903	20.784328
167.048598	-3.033000	3.828700	-11.612000	22.140271	0.000901	20.804414
168.048539	-3.008300	3.829400	-11.517000	22.133192	0.000904	20.817240
169.050956	-2.988200	3.829800	-11.442000	22.129452	0.000904	20.813022
170.051581	-2.980400	3.830900	-11.417000	22.157311	0.000904	20.820051
171.052321	-2.975300	3.831100	-11.398000	22.155793	0.000905	20.809996
172.051880	-3.001600	3.829300	-11.493000	22.155719	0.000905	20.786215
173.052059	-2.999900	3.828200	-11.482000	22.136302	0.000905	20.802337
174.053384	-3.009700	3.829400	-11.524000	22.151652	0.000906	20.803006
175.050712	-3.000900	3.828500	-11.487000	22.191932	0.000907	20.807298
176.049381	-2.990400	3.830600	-11.454000	22.175356	0.000906	20.802082
177.054405	-3.017100	3.828100	-11.548000	22.189334	0.000908	20.797111
178.051556	-2.999600	3.827500	-11.480000	22.191776	0.000909	20.804771
179.050629	-2.979000	3.827800	-11.402000	22.229481	0.000909	20.786573
180.052972	-3.017300	3.827400	-11.547000	22.224730	0.000908	20.821171
181.051382	-3.002400	3.826700	-11.487000	22.233425	0.000909	20.814230
182.052138	-2.992100	3.827900	-11.453000	22.231751	0.000909	20.817769
183.053863	-3.003800	3.827400	-11.495000	22.229261	0.000910	20.830448
184.051202	-2.996300	3.826600	-11.465000	22.247949	0.000910	20.809806
185.051692	-3.015600	3.825700	-11.536000	22.236911	0.000911	20.822461
186.054221	-3.000000	3.826300	-11.478000	22.238927	0.000912	20.820213
187.053890	-3.004700	3.825400	-11.493000	22.244586	0.000911	20.825404
188.052483	-2.981200	3.826500	-11.407000	22.276909	0.000913	20.809405
189.055897	-3.003500	3.826200	-11.491000	22.255297	0.000914	20.807680
190.053192	-2.992500	3.825100	-11.446000	22.262556	0.000913	20.832966
191.052476	-3.015700	3.824000	-11.530000	22.276533	0.000914	20.826572
192.057914	-2.991400	3.824400	-11.440000	22.281220	0.000912	20.817989
193.055505	-3.016300	3.823300	-11.531000	22.293132	0.000913	20.814269
194.056359	-3.002200	3.825100	-11.482000	22.311878	0.000915	20.818815
195.059017	-2.999400	3.825500	-11.473000	22.320792	0.000917	20.825844
196.055773	-2.997300	3.824100	-11.461000	22.325249	0.000916	20.832678
197.056764	-3.018700	3.821700	-11.536000	22.344126	0.000916	20.822183
198.060333	-2.986600	3.823800	-11.419000	22.347367	0.000916	20.806937
199.057450	-3.003500	3.823000	-11.481000	22.365565	0.000918	20.828953
200.056815	-2.993600	3.822900	-11.444000	22.369197	0.000917	20.828796
201.063874	-2.993400	3.822800	-11.442000	22.366488	0.000918	20.829402
202.058002	-2.993000	3.821800	-11.437000	22.391086	0.000918	20.840757
203.058264	-2.994000	3.822200	-11.442000	22.398017	0.000918	20.821620
204.059523	-2.992000	3.821700	-11.434000	22.394522	0.000919	20.838509
205.058191	-3.001100	3.822800	-11.471000	22.409879	0.000921	20.817852
206.057490	-3.019500	3.820300	-11.534000	22.417855	0.000920	20.815882
207.060456	-3.016500	3.820100	-11.522000	22.417186	0.000919	20.840816
208.060296	-2.972500	3.823800	-11.365000	22.421086	0.000920	20.834764
209.059233	-3.013200	3.820900	-11.512000	22.435203	0.000920	20.829935
210.062468	-2.997400	3.820600	-11.451000	22.443823	0.000922	20.822920
211.060634	-2.998300	3.821200	-11.457000	22.449275	0.000922	20.837389
212.060497	-2.983800	3.821300	-11.401000	22.480948	0.000924	20.843978
213.061977	-2.982400	3.820700	-11.393000	22.459667	0.000923	20.821718
214.061509	-3.005700	3.821400	-11.485000	22.499281	0.000925	20.835312
215.061120	-3.016700	3.819800	-11.522000	22.493502	0.000924	20.829050
216.062877	-2.990600	3.821000	-11.427000	22.504948	0.000925	20.816806
217.061247	-2.995600	3.819000	-11.439000	22.505885	0.000928	20.823908
218.063336	-3.005200	3.818900	-11.476000	22.506661	0.000926	20.844599
219.065004	-3.022700	3.818200	-11.540000	22.540227	0.000926	20.850240
220.063041	-2.991100	3.819300	-11.422000	22.512948	0.000928	20.847576
221.064271	-2.987200	3.817500	-11.402000	22.511445	0.000929	20.836113
222.066766	-2.992800	3.817400	-11.424000	22.506295	0.000928	20.836646
223.065308	-3.016400	3.817500	-11.513000	22.472499	0.000929	20.811336
224.064772	-2.998900	3.817500	-11.448000	22.502800	0.000932	20.819870
225.067142	-3.025500	3.816600	-11.546000	22.511723	0.000930	20.824064
226.064369	-3.005900	3.816300	-11.471000	22.524588	0.000932	20.818458
227.064147	-2.990200	3.816600	-11.412000	22.505275	0.000933	20.837521
228.066123	-2.992000	3.815700	-11.416000	22.557060	0.000932	20.830116
229.065245	-2.981700	3.817200	-11.381000	22.526638	0.000932	20.802019
230.066590	-2.999800	3.816200	-11.447000	22.561125	0.000933	20.815221
231.067553	-3.028400	3.814500	-11.551000	22.561843	0.000933	20.811673
232.065829	-2.976500	3.817300	-11.360000	22.563819	0.000936	20.823135
233.065615	-2.996900	3.815800	-11.434000	22.581419	0.000936	20.829856
234.068266	-3.002600	3.816700	-11.458000	22.584601	0.000935	20.802224
235.067186	-2.990300	3.815200	-11.408000	22.582234	0.000935	20.819293
236.067405	-2.972800	3.816300	-11.344000	22.596714	0.000935	20.825261
237.069169	-2.977000	3.815100	-11.356000	22.614762	0.000936	20.810147
238.069753	-2.997300	3.813600	-11.430000	22.583215	0.000938	20.817431
239.069589	-2.975100	3.813800	-11.345000	22.586587	0.000937	20.824127
240.069835	-3.004800	3.814700	-11.462000	22.576694	0.000939	20.825124
241.072017	-2.992100	3.815000	-11.414000	22.600496	0.000937	20.813877
242.070796	-3.022800	3.812300	-11.522000	22.589901	0.000939	20.806110
243.073599	-2.991900	3.814100	-11.411000	22.592644	0.000938	20.806486
244.073953	-3.018000	3.812100	-11.503000	22.617963	0.000940	20.815724
245.074153	-3.015300	3.812600	-11.495000	22.606216	0.000941	20.812019
246.073084	-3.004200	3.811700	-11.450000	22.629896	0.000940	20.803494
247.072809	-3.009800	3.812200	-11.473000	22.600106	0.000944	20.791674
248.074224	-2.985100	3.811300	-11.376000	22.619384	0.000943	20.787275
249.075338	-2.986900	3.812200	-11.386000	22.630428	0.000942	20.800234
250.075628	-3.011200	3.811200	-11.474000	22.641013	0.000944	20.811784
251.076334	-2.991100	3.812500	-11.403000	22.619637	0.000943	20.811237
252.077623	-3.005800	3.809900	-11.451000	22.629154	0.000943	20.793742
253.075492	-3.007900	3.811400	-11.463000	22.624029	0.000946	20.802834
254.076393	-3.003600	3.810800	-11.446000	22.630242	0.000946	20.787720
255.078280	-3.001300	3.811100	-11.437000	22.648377	0.000945	20.799720
256.077559	-3.005000	3.810200	-11.448000	22.647055	0.000946	20.790809
257.076609	-3.006500	3.809900	-11.454000	22.657674	0.000947	20.805713
258.079499	-2.991900	3.811100	-11.402000	22.659797	0.000946	20.783657
259.076515	-2.990700	3.810400	-11.395000	22.656654	0.000948	20.776716
260.077457	-3.009500	3.809300	-11.463000	22.664628	0.000947	20.783281
261.078185	-3.018000	3.808100	-11.492000	22.696051	0.000949	20.806221
262.078822	-3.012700	3.808400	-11.471000	22.680250	0.000949	20.792764
263.079170	-3.021200	3.807200	-11.501000	22.681655	0.000949	20.784214
264.079386	-3.035700	3.807100	-11.556000	22.702327	0.000949	20.774575
265.077961	-2.999700	3.809200	-11.425000	22.711599	0.000949	20.775802
266.078730	-3.019100	3.808500	-11.496000	22.707651	0.000950	20.772321
267.082587	-2.994300	3.807000	-11.398000	22.730011	0.000954	20.758683
268.080607	-2.998400	3.807800	-11.417000	22.748784	0.000952	20.772746
269.079804	-2.996600	3.807800	-11.408000	22.749770	0.000951	20.771363
270.081033	-3.011600	3.807000	-11.463000	22.767293	0.000953	20.787968
271.080975	-3.003700	3.806700	-11.431000	22.777526	0.000953	20.786839
272.083371	-3.008900	3.806200	-11.451000	22.765351	0.000954	20.766582
