LabVIEW Measurement	
Writer_Version	2
Reader_Version	2
Separator	Tab
Decimal_Separator	.
Multi_Headings	No
X_Columns	One
Time_Pref	Absolute
Operator	admin
Description	Clolumns are: time, Current, Voltage, Power, Battery Temp, and Chamber Temp
Date	2024/08/16
Time	13:06:06.104549407958984375
***End_of_Header***	
	
Channels	6						
Samples	1	1	1	1	1	1	
Date	2024/09/20	2024/09/20	2024/09/20	2024/09/20	2024/09/20	2024/09/20	
Time	03:16:01.98429107666015625	03:16:01.9920487403869628907	03:16:01.9990239143371582032	03:16:01.9674358367919921875	03:16:01.9674358367919921875	03:16:01.9674358367919921875	
X_Dimension	Time	Time	Time	Time	Time	Time	
X0	0.0000000000000000E+0	0.0000000000000000E+0	0.0000000000000000E+0	0.0000000000000000E+0	0.0000000000000000E+0	0.0000000000000000E+0	
Delta_X	1.000000	1.000000	1.000000	1.000000	1.000000	1.000000	
***End_of_Header***							
X_Value	Untitled	Untitled 1	Untitled 2	Untitled 3	Untitled 4	Untitled 5	Comment
0.000000	0.021552	4.089800	0.088071	21.033618	0.001043	20.771435
1.002954	-3.000700	3.901900	-11.706000	21.022015	0.001042	20.790176
2.004131	-2.987300	3.896100	-11.638000	21.008467	0.001042	20.759081
2.998821	-2.994700	3.889900	-11.648000	21.016501	0.001034	20.766643
4.002360	-3.022900	3.885900	-11.745000	21.030075	0.001039	20.763149
5.002338	-2.994600	3.883100	-11.627000	21.039656	0.001038	20.756611
6.001990	-3.011900	3.878500	-11.680000	21.018747	0.001037	20.764147
7.009079	-3.020500	3.874300	-11.701000	21.034965	0.001035	20.761402
8.001642	-3.007300	3.873700	-11.648000	21.038807	0.001034	20.759555
9.006964	-2.982000	3.874500	-11.553000	21.034765	0.001035	20.765470
10.003001	-3.001200	3.869100	-11.611000	21.036188	0.001032	20.747452
11.005170	-2.991800	3.867800	-11.570000	21.053453	0.001032	20.751445
12.004422	-2.993600	3.866100	-11.573000	21.041951	0.001033	20.759381
13.008741	-3.006300	3.863700	-11.614000	21.064157	0.001031	20.751719
14.009399	-2.968100	3.863400	-11.466000	21.059740	0.001032	20.762475
15.002637	-2.989300	3.861700	-11.543000	21.063957	0.001030	20.749149
16.004205	-3.003100	3.859000	-11.588000	21.084690	0.001030	20.732902
17.009994	-3.010500	3.859400	-11.618000	21.059790	0.001030	20.735498
18.004803	-2.993800	3.859500	-11.553000	21.073388	0.001026	20.761901
19.004168	-2.982700	3.858200	-11.506000	21.075783	0.001030	20.740115
20.005589	-2.998300	3.856800	-11.563000	21.097813	0.001028	20.746503
21.005200	-2.998700	3.855500	-11.560000	21.106495	0.001024	20.762301
22.005441	-2.982700	3.855800	-11.499000	21.083343	0.001027	20.757160
23.009481	-3.005000	3.853400	-11.577000	21.111485	0.001025	20.755438
24.007317	-2.997900	3.854100	-11.553000	21.101082	0.001024	20.728909
25.006711	-3.005300	3.852400	-11.577000	21.113431	0.001025	20.743159
26.012811	-3.017200	3.852300	-11.622000	21.108442	0.001026	20.734375
27.006863	-3.016100	3.850300	-11.610000	21.131843	0.001024	20.753516
28.009564	-2.988400	3.850900	-11.507000	21.134363	0.001027	20.744182
29.008890	-3.010000	3.849300	-11.586000	21.118421	0.001024	20.739142
30.012136	-3.008700	3.848600	-11.579000	21.162055	0.001021	20.729683
31.011992	-2.998700	3.848100	-11.536000	21.168068	0.001022	20.740439
32.013655	-3.007000	3.846400	-11.565000	21.171161	0.001022	20.739266
33.016751	-2.989400	3.847800	-11.501000	21.178521	0.001022	20.729558
34.013565	-3.003900	3.845500	-11.550000	21.193963	0.001023	20.725091
35.018239	-3.017400	3.845500	-11.602000	21.182113	0.001023	20.740739
36.012279	-2.983800	3.846900	-11.477000	21.205613	0.001023	20.733426
37.012619	-3.016900	3.842600	-11.591000	21.201048	0.001023	20.733127
38.010962	-2.993800	3.843000	-11.503000	21.207460	0.001021	20.731954
39.015984	-2.995400	3.843700	-11.512000	21.206836	0.001023	20.724692
40.013959	-3.004900	3.843900	-11.549000	21.229263	0.001020	20.721996
41.018096	-3.004300	3.842200	-11.541000	21.226494	0.001020	20.733452
42.012873	-2.983600	3.841900	-11.461000	21.225072	0.001021	20.734400
43.011169	-3.007800	3.841700	-11.554000	21.254957	0.001020	20.711190
44.020571	-2.973600	3.841600	-11.421000	21.244131	0.001021	20.743036
45.012723	-2.991200	3.841000	-11.487000	21.255456	0.001020	20.724967
46.012359	-2.988000	3.839900	-11.472000	21.269525	0.001022	20.745207
47.013506	-3.013400	3.839700	-11.569000	21.271421	0.001019	20.730033
48.012894	-2.991700	3.841200	-11.491000	21.279479	0.001022	20.730033
49.011160	-3.011200	3.839600	-11.561000	21.272619	0.001023	20.727912
50.018589	-3.010900	3.837800	-11.554000	21.305646	0.001019	20.730608
51.012255	-2.988000	3.837500	-11.465000	21.295868	0.001022	20.712289
52.013117	-3.014700	3.838100	-11.570000	21.299834	0.001024	20.734750
53.013278	-3.005400	3.837400	-11.532000	21.309463	0.001019	20.724942
54.012076	-2.988500	3.837100	-11.465000	21.322110	0.001021	20.706774
55.026820	-3.003800	3.836600	-11.523000	21.322584	0.001018	20.722896
56.014313	-2.981400	3.834800	-11.432000	21.332985	0.001021	20.732828
57.015973	-2.987600	3.835600	-11.458000	21.339196	0.001021	20.724344
58.014319	-2.993200	3.836200	-11.481000	21.355485	0.001020	20.712190
59.014265	-3.012200	3.835000	-11.550000	21.368305	0.001020	20.721224
60.013134	-2.997900	3.834200	-11.493000	21.359450	0.001021	20.711416
61.015600	-3.017700	3.833200	-11.566000	21.383196	0.001021	20.727114
62.015441	-2.995000	3.835300	-11.486000	21.393223	0.001022	20.724344
63.014382	-3.019000	3.833200	-11.571000	21.408737	0.001019	20.716158
64.030978	-2.992000	3.833500	-11.469000	21.404572	0.001023	20.731905
65.016415	-2.998300	3.832200	-11.489000	21.380727	0.001023	20.727488
66.016338	-2.988900	3.831300	-11.449000	21.408887	0.001022	20.721049
67.025654	-3.016200	3.832800	-11.560000	21.412579	0.001022	20.709569
68.025256	-2.998900	3.832100	-11.491000	21.403200	0.001023	20.706824
69.015226	-2.987700	3.831500	-11.446000	21.412579	0.001021	20.713362
70.023281	-3.007200	3.829900	-11.516000	21.418839	0.001019	20.733378
71.029738	-3.008600	3.830400	-11.523000	21.429614	0.001024	20.728511
72.020186	-2.996200	3.831200	-11.478000	21.433929	0.001024	20.720974
73.026264	-2.999600	3.830100	-11.488000	21.440663	0.001023	20.718703
74.020408	-3.009000	3.829600	-11.522000	21.447522	0.001022	20.723670
75.025734	-2.994100	3.830300	-11.467000	21.476104	0.001022	20.735200
76.029118	-2.998300	3.829300	-11.481000	21.491767	0.001022	20.735699
77.027583	-3.016000	3.827200	-11.541000	21.481841	0.001022	20.698737
78.026558	-3.020700	3.827300	-11.560000	21.493388	0.001020	20.715508
79.026670	-3.004800	3.827500	-11.498000	21.522443	0.001021	20.742212
80.022458	-2.994900	3.827400	-11.462000	21.529975	0.001024	20.719876
81.023619	-3.010200	3.826500	-11.516000	21.532220	0.001022	20.727812
82.029446	-2.990600	3.826700	-11.443000	21.551447	0.001021	20.726190
83.021152	-3.013500	3.825600	-11.528000	21.542195	0.001021	20.700808
84.031229	-2.984100	3.827400	-11.419000	21.540150	0.001024	20.716781
85.024835	-2.996100	3.825800	-11.462000	21.589105	0.001025	20.727363
86.023887	-2.998300	3.826100	-11.470000	21.580202	0.001022	20.710866
87.027207	-2.974200	3.825400	-11.376000	21.569154	0.001022	20.714984
88.025205	-2.985200	3.825600	-11.419000	21.590975	0.001025	20.731605
89.020715	-2.979900	3.824800	-11.397000	21.623195	0.001023	20.725915
90.030440	-2.991100	3.825300	-11.440000	21.614692	0.001024	20.723569
91.023376	-2.998000	3.824100	-11.463000	21.622572	0.001023	20.739042
92.029287	-2.973700	3.824400	-11.371000	21.633071	0.001027	20.730582
93.026516	-3.003400	3.822700	-11.481000	21.659479	0.001024	20.710542
94.023637	-2.990500	3.824400	-11.436000	21.676461	0.001023	20.716157
95.022643	-2.971300	3.824500	-11.362000	21.639081	0.001025	20.716681
96.024498	-3.020900	3.822100	-11.545000	21.670726	0.001025	20.714685
97.033499	-2.993700	3.823700	-11.446000	21.695637	0.001025	20.737246
98.029278	-3.003600	3.821800	-11.478000	21.670202	0.001026	20.721748
99.026163	-3.004300	3.820500	-11.477000	21.711970	0.001027	20.732729
100.027688	-3.026600	3.820600	-11.562000	21.701846	0.001027	20.716432
101.024725	-2.990200	3.821400	-11.425000	21.708479	0.001026	20.728287
102.030248	-3.002100	3.821000	-11.467000	21.718154	0.001029	20.728960
103.023253	-2.980100	3.822200	-11.389000	21.713716	0.001025	20.722147
104.023066	-2.987400	3.821100	-11.413000	21.723864	0.001026	20.720924
105.026054	-2.984100	3.820900	-11.401000	21.722219	0.001029	20.713113
106.033411	-2.996600	3.820700	-11.448000	21.720798	0.001027	20.714061
107.023824	-2.996500	3.820600	-11.447000	21.744087	0.001029	20.723620
108.025594	-2.996600	3.820700	-11.448000	21.769047	0.001027	20.728686
109.024859	-3.008700	3.818500	-11.488000	21.780018	0.001029	20.715484
110.028025	-3.021700	3.816700	-11.533000	21.779070	0.001029	20.719277
111.024800	-2.987000	3.819500	-11.408000	21.795627	0.001030	20.712614
112.024464	-2.994400	3.819700	-11.437000	21.776976	0.001029	20.736148
113.029825	-2.971600	3.818900	-11.348000	21.789318	0.001029	20.720525
114.025888	-3.017700	3.817700	-11.520000	21.797197	0.001030	20.704702
115.028382	-3.018500	3.817500	-11.522000	21.802782	0.001031	20.736847
116.027436	-3.019000	3.817000	-11.522000	21.816620	0.001026	20.726040
117.032972	-3.006500	3.815800	-11.470000	21.820535	0.001031	20.721897
118.035437	-3.004700	3.816500	-11.466000	21.837889	0.001028	20.721723
119.030472	-2.978400	3.815900	-11.365000	21.846290	0.001031	20.738668
120.028566	-2.999900	3.817600	-11.452000	21.873642	0.001032	20.715783
121.026240	-3.000300	3.814500	-11.442000	21.851875	0.001031	20.742362
122.030594	-3.004700	3.815600	-11.463000	21.862098	0.001032	20.738843
123.031890	-2.989800	3.816900	-11.411000	21.890122	0.001034	20.744608
124.033676	-2.987600	3.816000	-11.399000	21.874888	0.001031	20.730782
125.031702	-2.998400	3.815000	-11.437000	21.889274	0.001034	20.743759
126.035944	-3.013700	3.815200	-11.497000	21.902761	0.001032	20.720275
127.032001	-2.985200	3.815500	-11.389000	21.906003	0.001034	20.729209
128.030506	-2.986500	3.813800	-11.387000	21.920712	0.001036	20.743459
129.035293	-3.006100	3.813600	-11.463000	21.929288	0.001033	20.752045
130.031701	-2.994300	3.815100	-11.422000	21.914055	0.001034	20.742486
131.031016	-3.013500	3.812200	-11.486000	21.935172	0.001037	20.737070
132.035383	-3.004600	3.813600	-11.458000	21.923055	0.001035	20.739641
133.047206	-3.009400	3.812700	-11.472000	21.945543	0.001036	20.710466
134.029465	-2.997800	3.812400	-11.427000	21.941354	0.001036	20.754639
135.039897	-2.975400	3.813700	-11.346000	21.940033	0.001036	20.753791
136.034386	-3.001900	3.812800	-11.444000	21.945842	0.001036	20.744432
137.034304	-3.028500	3.812700	-11.545000	21.960850	0.001038	20.735273
138.034068	-3.009700	3.813100	-11.474000	21.965113	0.001038	20.749972
139.033543	-3.010500	3.811500	-11.473000	21.963542	0.001041	20.731804
140.030920	-2.987700	3.812300	-11.389000	21.966883	0.001038	20.741312
141.032141	-3.023400	3.809800	-11.517000	21.994405	0.001039	20.766019
142.035787	-3.011500	3.810100	-11.473000	21.957733	0.001038	20.735472
143.034931	-3.025000	3.810000	-11.523000	21.995053	0.001039	20.744856
144.041747	-3.000600	3.811200	-11.435000	21.991937	0.001039	20.748375
145.033364	-2.992300	3.811200	-11.403000	22.004825	0.001042	20.757010
146.034090	-2.979600	3.811500	-11.356000	22.018387	0.001040	20.737394
147.032738	-2.998400	3.810800	-11.425000	22.029854	0.001042	20.763573
148.036033	-3.002400	3.809700	-11.438000	22.044313	0.001040	20.739640
149.035403	-2.994400	3.809900	-11.408000	22.059918	0.001041	20.763798
150.037250	-2.982800	3.809800	-11.363000	22.079935	0.001044	20.742585
151.033659	-3.003600	3.808100	-11.437000	22.083724	0.001046	20.746853
152.032780	-2.991500	3.810300	-11.397000	22.087039	0.001044	20.759181
153.036004	-2.998400	3.808000	-11.417000	22.102220	0.001043	20.768689
154.036173	-3.013000	3.808600	-11.474000	22.111916	0.001045	20.753266
155.037148	-2.990200	3.809800	-11.392000	22.134251	0.001045	20.750022
156.038228	-2.976600	3.809100	-11.337000	22.125651	0.001045	20.771285
157.038422	-2.974700	3.808200	-11.327000	22.133279	0.001046	20.760903
158.035326	-3.013200	3.807200	-11.471000	22.131933	0.001046	20.746278
159.037014	-3.005300	3.807100	-11.440000	22.143174	0.001047	20.771759
160.035998	-2.980100	3.807400	-11.345000	22.138862	0.001048	20.791149
161.034296	-3.000700	3.806000	-11.420000	22.168325	0.001046	20.759480
162.036173	-2.994700	3.807200	-11.401000	22.178644	0.001049	20.780718
163.035666	-2.995400	3.806200	-11.400000	22.207757	0.001048	20.760079
164.035322	-3.000000	3.805500	-11.414000	22.201824	0.001049	20.767416
165.036491	-2.985800	3.805700	-11.361000	22.214436	0.001050	20.770087
166.038981	-2.994600	3.806200	-11.396000	22.201052	0.001051	20.768065
167.044659	-3.010100	3.805000	-11.452000	22.218275	0.001047	20.752118
168.039344	-2.996700	3.803600	-11.397000	22.236070	0.001049	20.776101
169.041571	-3.031200	3.803100	-11.526000	22.253567	0.001051	20.769438
170.041657	-2.995100	3.804400	-11.391000	22.252346	0.001051	20.785285
171.037659	-3.014700	3.803900	-11.467000	22.249006	0.001054	20.783363
172.044022	-2.992800	3.803800	-11.383000	22.250427	0.001052	20.791898
173.042187	-3.013400	3.802900	-11.458000	22.238314	0.001055	20.765070
174.041523	-3.006900	3.803100	-11.434000	22.239759	0.001053	20.774104
175.042434	-3.015200	3.802200	-11.463000	22.229216	0.001052	20.777299
176.041882	-2.996600	3.803200	-11.395000	22.243847	0.001053	20.749747
177.038789	-3.021100	3.802100	-11.486000	22.283375	0.001059	20.770835
178.043117	-3.023600	3.800900	-11.492000	22.287189	0.001056	20.778447
179.042451	-3.008200	3.803500	-11.439000	22.292049	0.001054	20.787106
180.038930	-3.014200	3.800000	-11.452000	22.301494	0.001056	20.782814
181.041690	-3.010800	3.800700	-11.442000	22.318192	0.001058	20.788154
182.042279	-3.007000	3.800400	-11.426000	22.329308	0.001058	20.771783
183.039148	-3.011500	3.801100	-11.446000	22.354279	0.001056	20.775452
184.039892	-3.009000	3.800300	-11.434000	22.387624	0.001058	20.762849
185.043024	-3.031000	3.800400	-11.518000	22.388272	0.001061	20.779145
186.046365	-3.000700	3.799900	-11.402000	22.373892	0.001062	20.772332
187.044627	-2.996500	3.800500	-11.386000	22.397891	0.001056	20.781665
188.046258	-2.990800	3.800000	-11.364000	22.403349	0.001061	20.787605
189.043534	-3.000800	3.799100	-11.399000	22.428917	0.001059	20.786182
190.044478	-3.007900	3.799200	-11.426000	22.415759	0.001062	20.781541
191.043833	-2.999000	3.799000	-11.392000	22.399885	0.001061	20.778920
192.041633	-3.003400	3.798200	-11.405000	22.429839	0.001062	20.786631
193.044063	-2.983200	3.799800	-11.334000	22.416681	0.001062	20.775826
194.045016	-3.025900	3.796800	-11.486000	22.433901	0.001064	20.784535
195.043190	-3.009500	3.798500	-11.430000	22.468065	0.001065	20.769911
196.046032	-2.995700	3.799000	-11.379000	22.458222	0.001063	20.790874
197.047010	-3.017700	3.797500	-11.458000	22.461362	0.001062	20.813933
198.045245	-2.989900	3.798000	-11.355000	22.466445	0.001064	20.794842
199.046744	-3.018800	3.795400	-11.457000	22.481372	0.001065	20.784660
200.042840	-3.002400	3.796000	-11.396000	22.483415	0.001066	20.788129
201.043472	-3.021700	3.796400	-11.470000	22.480126	0.001067	20.789102
202.048983	-3.016200	3.797000	-11.452000	22.481745	0.001066	20.791672
203.044066	-2.986000	3.797900	-11.340000	22.478157	0.001067	20.791398
204.044877	-2.991200	3.797000	-11.356000	22.497444	0.001064	20.794118
205.045328	-3.015500	3.794900	-11.443000	22.507686	0.001067	20.797262
206.045018	-2.980300	3.797500	-11.317000	22.525203	0.001069	20.792521
207.045094	-2.998700	3.795100	-11.380000	22.519621	0.001067	20.806845
208.044623	-3.025800	3.793600	-11.478000	22.558368	0.001071	20.808193
209.045211	-2.997100	3.794700	-11.372000	22.563675	0.001069	20.805448
210.044994	-3.009400	3.795200	-11.420000	22.564946	0.001071	20.801505
211.045322	-3.006900	3.794700	-11.409000	22.553185	0.001071	20.791148
212.049630	-3.007000	3.794100	-11.408000	22.575660	0.001074	20.806546
213.051751	-2.977900	3.793400	-11.296000	22.572297	0.001073	20.797487
214.051994	-2.998300	3.793400	-11.372000	22.578077	0.001071	20.797113
215.046650	-2.999500	3.793700	-11.377000	22.618093	0.001074	20.799259
216.045914	-3.003200	3.793400	-11.391000	22.629703	0.001074	20.812784
217.048389	-3.005400	3.791400	-11.393000	22.632768	0.001076	20.799733
218.048776	-2.973200	3.792700	-11.274000	22.622851	0.001075	20.808292
219.049845	-3.012700	3.791500	-11.422000	22.644353	0.001075	20.808492
220.048944	-2.997000	3.791100	-11.361000	22.613384	0.001073	20.803077
221.047420	-3.016000	3.791600	-11.434000	22.631048	0.001077	20.829304
222.049318	-2.987500	3.791900	-11.325000	22.627535	0.001077	20.795440
223.055475	-3.012800	3.790700	-11.420000	22.617918	0.001078	20.822791
224.050035	-3.001200	3.791600	-11.378000	22.630152	0.001077	20.805647
225.049579	-3.012000	3.791500	-11.418000	22.621855	0.001079	20.813458
226.050940	-3.016600	3.789800	-11.430000	22.650881	0.001081	20.833522
227.050567	-3.016200	3.789400	-11.427000	22.620659	0.001077	20.816527
228.050355	-2.998200	3.789700	-11.361000	22.660249	0.001080	20.815404
229.051641	-3.008400	3.791400	-11.404000	22.684889	0.001081	20.823016
230.053636	-2.992400	3.790500	-11.341000	22.668545	0.001078	20.819447
231.050433	-3.003400	3.789600	-11.381000	22.692962	0.001080	20.812609
232.059374	-3.038100	3.788300	-11.507000	22.710401	0.001082	20.818224
233.054032	-3.022400	3.788500	-11.448000	22.715309	0.001082	20.829778
234.051528	-3.004300	3.789100	-11.382000	22.737980	0.001085	20.824038
235.050040	-3.016100	3.788200	-11.424000	22.755021	0.001083	20.828306
236.055954	-2.996800	3.788800	-11.353000	22.766406	0.001086	20.806994
237.051416	-3.011800	3.787100	-11.405000	22.758957	0.001085	20.827981
238.051748	-3.006400	3.787800	-11.386000	22.785264	0.001086	20.834894
239.057497	-3.009900	3.787000	-11.397000	22.800137	0.001085	20.829878
240.052573	-3.002800	3.785800	-11.367000	22.783869	0.001086	20.826384
241.051879	-3.001100	3.786300	-11.362000	22.802478	0.001090	20.826060
242.055686	-3.025900	3.785100	-11.452000	22.795254	0.001089	20.831150
243.057495	-3.004900	3.785900	-11.375000	22.789524	0.001085	20.847221
244.054201	-3.001800	3.785500	-11.362000	22.769619	0.001088	20.856205
245.056530	-2.990400	3.785600	-11.320000	22.764687	0.001089	20.838462
246.055761	-2.992900	3.785900	-11.330000	22.758633	0.001089	20.819597
247.054606	-2.989800	3.786400	-11.319000	22.804023	0.001090	20.847521
248.058071	-3.009700	3.784000	-11.388000	22.809254	0.001089	20.856080
249.055938	-3.002600	3.784700	-11.363000	22.795404	0.001092	20.814705
250.054496	-3.007300	3.784100	-11.379000	22.836159	0.001092	20.841781
251.057483	-3.010000	3.782400	-11.384000	22.839048	0.001094	20.835193
252.057600	-3.008800	3.783600	-11.383000	22.837155	0.001093	20.838038
253.054914	-3.016900	3.783000	-11.412000	22.865902	0.001094	20.856879
254.058019	-2.993400	3.784400	-11.328000	22.878382	0.001093	20.849942
255.057356	-2.992400	3.783700	-11.320000	22.879976	0.001093	20.852961
256.056654	-3.000000	3.783200	-11.348000	22.901772	0.001094	20.835443
257.060297	-2.987400	3.781400	-11.296000	22.908249	0.001093	20.832449
258.058002	-3.029400	3.780600	-11.452000	22.938737	0.001095	20.848295
259.060066	-2.974900	3.781600	-11.249000	22.913978	0.001094	20.835817
260.059034	-2.987100	3.780900	-11.292000	22.954131	0.001095	20.843329
261.058327	-2.992100	3.780400	-11.309000	22.914426	0.001096	20.852387
262.059257	-2.996000	3.779400	-11.322000	22.911263	0.001095	20.848744
263.059822	-2.979500	3.782100	-11.268000	22.901548	0.001097	20.848969
264.061541	-3.035500	3.779400	-11.470000	22.924265	0.001099	20.847072
265.060203	-3.013200	3.780300	-11.389000	22.927554	0.001099	20.847996
266.061979	-2.989000	3.780000	-11.295000	22.932361	0.001100	20.852338
267.062090	-2.972900	3.781100	-11.240000	22.950395	0.001100	20.847172
268.062635	-2.976600	3.780900	-11.253000	22.947406	0.001100	20.849393
269.058861	-2.980900	3.778500	-11.264000	22.935848	0.001099	20.843978
270.062681	-3.012500	3.778200	-11.381000	22.961205	0.001100	20.846623
271.063732	-2.996000	3.778300	-11.318000	22.972016	0.001104	20.857928
272.065944	-3.000800	3.778900	-11.337000	22.976225	0.001102	20.857404
