LabVIEW Measurement	
Writer_Version	2
Reader_Version	2
Separator	Tab
Decimal_Separator	.
Multi_Headings	No
X_Columns	One
Time_Pref	Absolute
Operator	admin
Description	Clolumns are: time, Current, Voltage, Power, Battery Temp, and Chamber Temp
Date	2024/08/16
Time	13:06:06.104549407958984375
***End_of_Header***	
	
Channels	6						
Samples	1	1	1	1	1	1	
Date	2024/09/10	2024/09/10	2024/09/10	2024/09/10	2024/09/10	2024/09/10	
Time	10:25:47.4815325736999511719	10:25:47.488681793212890625	10:25:47.4965567588806152344	10:25:47.4642271995544433594	10:25:47.4642271995544433594	10:25:47.4642271995544433594	
X_Dimension	Time	Time	Time	Time	Time	Time	
X0	0.0000000000000000E+0	0.0000000000000000E+0	0.0000000000000000E+0	0.0000000000000000E+0	0.0000000000000000E+0	0.0000000000000000E+0	
Delta_X	1.000000	1.000000	1.000000	1.000000	1.000000	1.000000	
***End_of_Header***							
X_Value	Untitled	Untitled 1	Untitled 2	Untitled 3	Untitled 4	Untitled 5	Comment
0.000000	0.009513	4.096300	0.038992	20.911051	0.000908	20.748421
0.998049	-3.006700	3.921400	-11.789000	20.921178	0.000910	20.731048
2.004170	-2.982100	3.914400	-11.673000	20.929786	0.000908	20.725431
3.004059	-2.979400	3.909300	-11.646000	20.940525	0.000905	20.730956
4.005012	-3.001100	3.903700	-11.714000	20.915994	0.000904	20.736295
5.003257	-3.007100	3.900000	-11.726000	20.922901	0.000905	20.731348
6.003609	-3.000100	3.899000	-11.697000	20.923400	0.000904	20.720466
7.004297	-2.995600	3.895800	-11.668000	20.944921	0.000904	20.729189
8.000762	-2.992300	3.893600	-11.649000	20.930053	0.000904	20.746088
9.004672	-3.004000	3.892200	-11.691000	20.939256	0.000902	20.735852
10.007616	-3.012200	3.890000	-11.716000	20.934335	0.000902	20.719549
11.005832	-3.003200	3.888000	-11.675000	20.943906	0.000901	20.742399
12.002748	-3.002000	3.886600	-11.666000	20.945705	0.000899	20.739930
13.003841	-3.000900	3.885800	-11.659000	20.954507	0.000899	20.751105
14.006630	-2.996500	3.883300	-11.635000	20.964161	0.000898	20.740371
15.008800	-3.001900	3.882000	-11.652000	20.973887	0.000897	20.750573
16.006357	-3.017900	3.881400	-11.713000	20.967397	0.000897	20.737443
17.003088	-3.010000	3.880400	-11.679000	20.988624	0.000898	20.752984
18.006641	-2.981300	3.880100	-11.567000	20.978579	0.000896	20.758585
19.003411	-3.004600	3.876400	-11.644000	21.004448	0.000895	20.725662
20.012560	-2.998100	3.877700	-11.625000	20.979763	0.000896	20.728000
21.007243	-2.987600	3.876600	-11.581000	20.992799	0.000893	20.759057
22.005583	-2.994100	3.875500	-11.602000	20.988501	0.000894	20.749543
23.007139	-2.991000	3.874500	-11.587000	21.008394	0.000892	20.746680
24.009007	-2.999200	3.873500	-11.616000	21.008452	0.000892	20.742470
25.007814	-3.018000	3.872100	-11.685000	21.013453	0.000892	20.753162
26.004373	-3.010500	3.872200	-11.656000	21.026097	0.000893	20.741627
27.004524	-2.995300	3.872000	-11.597000	21.030455	0.000892	20.733657
28.004605	-2.999800	3.871200	-11.611000	21.040826	0.000891	20.758256
29.012594	-2.985600	3.871800	-11.558000	21.043016	0.000893	20.750489
30.012354	-3.024300	3.868600	-11.698000	21.054394	0.000890	20.750963
31.010070	-3.015900	3.868700	-11.667000	21.053837	0.000892	20.741871
32.028326	-2.989600	3.867900	-11.562000	21.055880	0.000889	20.763356
33.014408	-3.003000	3.868100	-11.615000	21.066212	0.000890	20.763258
34.009697	-2.976000	3.868100	-11.511000	21.056018	0.000890	20.745950
35.009157	-3.021000	3.865800	-11.678000	21.087813	0.000890	20.756889
36.015122	-2.974600	3.868500	-11.506000	21.077751	0.000890	20.755834
37.010900	-2.996300	3.867000	-11.585000	21.090517	0.000889	20.742524
38.012495	-2.998400	3.865200	-11.587000	21.101820	0.000890	20.754779
39.010922	-3.010800	3.865000	-11.635000	21.119228	0.000887	20.760338
40.013546	-2.997600	3.865000	-11.585000	21.109591	0.000888	20.752121
41.023554	-2.995700	3.864100	-11.575000	21.132745	0.000889	20.767695
42.014710	-2.990300	3.864400	-11.555000	21.142953	0.000887	20.743766
43.015189	-2.999300	3.863400	-11.587000	21.140696	0.000889	20.774701
44.017878	-2.996400	3.862000	-11.571000	21.127874	0.000887	20.770883
45.016873	-3.004600	3.861600	-11.602000	21.158529	0.000887	20.760770
46.010242	-2.984300	3.863300	-11.528000	21.171556	0.000888	20.780914
47.014627	-3.007800	3.860800	-11.612000	21.165214	0.000887	20.745645
48.016001	-3.003100	3.861300	-11.595000	21.167159	0.000888	20.767980
49.016571	-3.024800	3.859600	-11.673000	21.186666	0.000888	20.754303
50.013870	-2.997400	3.859000	-11.565000	21.197822	0.000888	20.744599
51.020604	-3.014000	3.859300	-11.631000	21.193073	0.000887	20.746012
52.018535	-2.988900	3.860100	-11.536000	21.193694	0.000887	20.771290
53.022419	-2.994900	3.858200	-11.553000	21.210054	0.000886	20.755888
54.022727	-2.985000	3.857600	-11.514000	21.220350	0.000887	20.753386
55.019303	-3.001200	3.858200	-11.577000	21.219730	0.000886	20.744704
56.019387	-3.012100	3.857800	-11.619000	21.221298	0.000885	20.771404
57.019454	-3.005200	3.856800	-11.590000	21.239007	0.000888	20.772050
58.022503	-3.015200	3.855100	-11.623000	21.237634	0.000885	20.769728
59.021060	-3.010300	3.855700	-11.605000	21.248257	0.000885	20.774665
60.020161	-3.002600	3.855700	-11.576000	21.250358	0.000884	20.762542
61.017269	-2.981800	3.856700	-11.498000	21.250373	0.000884	20.766825
62.022602	-3.009400	3.855300	-11.601000	21.259183	0.000885	20.750507
63.025527	-3.010500	3.854400	-11.602000	21.273384	0.000885	20.782259
64.020839	-2.999000	3.855400	-11.560000	21.264216	0.000885	20.759810
65.018962	-3.012900	3.855100	-11.614000	21.280616	0.000886	20.780959
66.020352	-3.001200	3.854500	-11.566000	21.290733	0.000885	20.771640
67.022007	-2.986600	3.855200	-11.514000	21.309634	0.000885	20.765418
68.024470	-3.015600	3.853100	-11.619000	21.305344	0.000885	20.770135
69.021576	-2.998100	3.854600	-11.556000	21.348725	0.000885	20.763277
70.018049	-3.015500	3.852900	-11.618000	21.317813	0.000884	20.765066
71.021565	-3.009500	3.852300	-11.592000	21.346127	0.000887	20.764470
72.027501	-2.999600	3.853100	-11.557000	21.362910	0.000886	20.777468
73.024044	-2.999600	3.852400	-11.555000	21.356226	0.000885	20.773152
74.021352	-2.984000	3.852700	-11.496000	21.358220	0.000885	20.771827
75.021575	-3.008000	3.851200	-11.583000	21.381916	0.000885	20.768982
76.022431	-2.991100	3.852500	-11.521000	21.391076	0.000885	20.788104
77.020800	-2.992900	3.851800	-11.527000	21.401166	0.000885	20.752680
78.022137	-2.991600	3.852200	-11.523000	21.435589	0.000888	20.785226
79.019663	-2.981700	3.851500	-11.483000	21.426463	0.000885	20.787949
80.028997	-2.989600	3.850200	-11.509000	21.458360	0.000887	20.784302
81.023250	-3.002400	3.850100	-11.559000	21.444617	0.000887	20.772448
82.021357	-2.987300	3.851300	-11.504000	21.452249	0.000886	20.779136
83.021846	-2.980600	3.851300	-11.477000	21.469929	0.000887	20.779757
84.024724	-2.996900	3.849900	-11.537000	21.470525	0.000887	20.788888
85.023969	-2.990000	3.850200	-11.510000	21.471048	0.000887	20.792256
86.021225	-2.998200	3.850300	-11.542000	21.496310	0.000886	20.789558
87.024107	-2.986300	3.849300	-11.493000	21.493222	0.000886	20.795003
88.022651	-3.011000	3.849100	-11.589000	21.484635	0.000887	20.797316
89.025291	-2.992900	3.848500	-11.517000	21.505754	0.000888	20.798534
90.024063	-3.012900	3.848000	-11.593000	21.512012	0.000887	20.792468
91.028893	-2.994100	3.848200	-11.521000	21.538099	0.000886	20.802924
92.026833	-2.984000	3.849000	-11.484000	21.522715	0.000887	20.771409
93.030131	-2.999200	3.846600	-11.534000	21.540591	0.000887	20.777916
94.029150	-2.990900	3.847400	-11.505000	21.545867	0.000885	20.793154
95.023545	-2.993100	3.847500	-11.514000	21.550802	0.000888	20.785289
96.032273	-3.004000	3.847000	-11.554000	21.578129	0.000888	20.780392
97.029253	-2.994400	3.846600	-11.516000	21.578847	0.000885	20.785378
98.041856	-2.988400	3.846200	-11.491000	21.601371	0.000888	20.781838
99.025613	-2.994400	3.845500	-11.514000	21.589125	0.000888	20.793292
100.028607	-3.010800	3.845800	-11.577000	21.566659	0.000889	20.799260
101.027752	-3.015100	3.844600	-11.591000	21.608142	0.000889	20.806159
102.030078	-3.021300	3.845100	-11.615000	21.626499	0.000887	20.800820
103.028714	-3.012300	3.844800	-11.580000	21.603331	0.000889	20.798973
104.025151	-3.008900	3.843700	-11.564000	21.614751	0.000889	20.803763
105.032059	-2.999400	3.845100	-11.532000	21.623598	0.000890	20.804556
106.028264	-2.999300	3.844700	-11.531000	21.637959	0.000890	20.794271
107.028701	-3.011000	3.844900	-11.575000	21.633426	0.000889	20.779777
108.031507	-3.009300	3.843600	-11.565000	21.643645	0.000891	20.775305
109.029800	-2.981900	3.844100	-11.461000	21.645067	0.000891	20.807548
110.027929	-3.012500	3.842800	-11.575000	21.648294	0.000890	20.822631
111.035271	-3.004300	3.843600	-11.546000	21.674002	0.000891	20.797150
112.030267	-3.005500	3.843300	-11.550000	21.678208	0.000889	20.810842
113.029655	-2.983500	3.843900	-11.466000	21.697331	0.000892	20.799160
114.034560	-3.001400	3.841700	-11.529000	21.690624	0.000891	20.807621
115.029491	-3.028400	3.841600	-11.631000	21.675365	0.000891	20.796144
116.031406	-3.006700	3.840300	-11.545000	21.709200	0.000891	20.814357
117.030287	-2.985300	3.842100	-11.468000	21.701570	0.000891	20.815731
118.028036	-3.001900	3.841100	-11.529000	21.718920	0.000892	20.794688
119.027195	-2.996800	3.841000	-11.510000	21.716004	0.000892	20.821167
120.031565	-3.010600	3.841300	-11.563000	21.741172	0.000892	20.807948
121.031768	-3.012800	3.840800	-11.570000	21.753906	0.000891	20.833020
122.032619	-3.023800	3.839300	-11.608000	21.761608	0.000893	20.790469
123.033998	-2.976300	3.841000	-11.430000	21.755278	0.000892	20.823963
124.031869	-3.021400	3.839200	-11.599000	21.777071	0.000893	20.822066
125.033614	-3.014500	3.840100	-11.575000	21.772709	0.000893	20.798261
126.038730	-3.001900	3.840500	-11.527000	21.773926	0.000893	20.797108
127.031720	-2.986300	3.841000	-11.469000	21.803371	0.000896	20.790069
128.033613	-3.003500	3.839600	-11.531000	21.804613	0.000896	20.821182
129.038816	-2.994300	3.839000	-11.494000	21.807030	0.000895	20.807481
130.031872	-2.993700	3.838300	-11.489000	21.814986	0.000894	20.824927
131.033526	-2.977400	3.838500	-11.427000	21.829247	0.000896	20.818812
132.036139	-3.009400	3.837500	-11.548000	21.829434	0.000898	20.819947
133.031088	-3.002800	3.838300	-11.524000	21.836597	0.000896	20.810048
134.034543	-3.003500	3.838400	-11.528000	21.833918	0.000896	20.820642
135.042792	-3.014700	3.837800	-11.568000	21.853316	0.000898	20.832471
136.046511	-2.989300	3.837900	-11.471000	21.834767	0.000896	20.813906
137.039693	-2.997700	3.836900	-11.501000	21.827530	0.000898	20.826102
138.037352	-3.005900	3.837100	-11.533000	21.857292	0.000897	20.828865
139.032315	-3.011700	3.836300	-11.553000	21.861760	0.000898	20.830492
140.036001	-2.985300	3.837100	-11.454000	21.871815	0.000898	20.822538
141.040659	-2.987800	3.836800	-11.462000	21.880480	0.000899	20.819358
142.039127	-3.000600	3.836100	-11.509000	21.904899	0.000897	20.825308
143.036741	-3.014600	3.835300	-11.561000	21.917518	0.000900	20.838412
144.032873	-3.008800	3.836300	-11.542000	21.911702	0.000900	20.819790
145.039181	-3.004200	3.834500	-11.518000	21.933018	0.000900	20.833066
146.036321	-3.022000	3.833500	-11.584000	21.910150	0.000900	20.832934
147.041898	-2.995200	3.833400	-11.481000	21.949286	0.000901	20.828487
148.036941	-2.984800	3.835900	-11.448000	21.945921	0.000902	20.820378
149.039448	-2.990400	3.834900	-11.467000	21.957935	0.000901	20.834773
150.038085	-2.971100	3.835400	-11.394000	21.963365	0.000900	20.834520
151.038873	-2.982800	3.833800	-11.433000	21.962287	0.000901	20.845293
152.040377	-3.001100	3.834300	-11.506000	21.966868	0.000904	20.833284
153.039223	-2.985700	3.834200	-11.447000	21.983871	0.000904	20.855994
154.040264	-2.998600	3.831500	-11.487000	22.007325	0.000903	20.825894
155.040288	-2.991500	3.833900	-11.467000	21.999028	0.000902	20.855520
156.042819	-3.032900	3.832600	-11.622000	21.997501	0.000904	20.846404
157.049224	-2.999200	3.832200	-11.492000	22.016814	0.000905	20.848194
158.038536	-2.996800	3.832800	-11.485000	21.979199	0.000905	20.847998
159.051606	-3.003700	3.831700	-11.508000	21.995066	0.000904	20.854398
160.042614	-2.989100	3.832700	-11.456000	21.976397	0.000907	20.849461
161.044843	-3.018700	3.831500	-11.564000	21.998324	0.000905	20.817832
162.041478	-3.025300	3.830600	-11.588000	22.022667	0.000907	20.835088
163.048676	-3.003200	3.832000	-11.507000	22.026457	0.000906	20.834140
164.041679	-3.001600	3.829900	-11.495000	22.028335	0.000909	20.846452
165.043697	-3.006200	3.829400	-11.511000	22.043483	0.000907	20.855452
166.047076	-3.004500	3.830800	-11.508000	22.048440	0.000907	20.836707
167.045975	-2.975200	3.832200	-11.400000	22.044397	0.000908	20.848781
168.039700	-3.020600	3.828600	-11.564000	22.042045	0.000909	20.847374
169.045746	-3.016000	3.829100	-11.547000	22.075902	0.000909	20.839069
170.040655	-2.990100	3.830700	-11.454000	22.072358	0.000909	20.833624
171.044498	-3.005400	3.829900	-11.508000	22.100317	0.000909	20.834114
172.047140	-3.004300	3.829500	-11.503000	22.072104	0.000911	20.819146
173.040479	-3.022400	3.828900	-11.571000	22.065220	0.000909	20.835487
174.045231	-3.014300	3.828100	-11.538000	22.110728	0.000910	20.820829
175.049260	-2.990900	3.828700	-11.450000	22.078996	0.000910	20.823674
176.043229	-3.019700	3.826700	-11.554000	22.112140	0.000913	20.838838
177.046671	-2.990300	3.828500	-11.448000	22.126929	0.000912	20.834677
178.050651	-2.981600	3.828700	-11.414000	22.119302	0.000912	20.820404
179.039906	-2.997200	3.829100	-11.476000	22.127843	0.000914	20.809515
180.043269	-2.975800	3.829800	-11.395000	22.142598	0.000915	20.808640
181.046708	-2.986500	3.827200	-11.430000	22.156650	0.000915	20.831243
182.041041	-3.008700	3.826200	-11.510000	22.159394	0.000916	20.832093
183.045288	-2.979800	3.828000	-11.405000	22.161933	0.000915	20.808083
184.048801	-2.991300	3.828000	-11.449000	22.171747	0.000915	20.836875
185.044587	-2.998800	3.826900	-11.475000	22.168799	0.000916	20.822544
186.044962	-3.028500	3.826600	-11.587000	22.156853	0.000915	20.825282
187.053415	-2.992800	3.827500	-11.453000	22.166627	0.000919	20.829852
188.049621	-3.005300	3.825800	-11.497000	22.177193	0.000916	20.817197
189.045017	-2.987600	3.826100	-11.430000	22.196879	0.000918	20.820786
190.046275	-3.012600	3.824700	-11.521000	22.182663	0.000918	20.825519
191.043858	-2.989400	3.825300	-11.434000	22.214221	0.000918	20.838149
192.046814	-2.997600	3.826800	-11.470000	22.210824	0.000919	20.807247
193.048374	-3.017000	3.823700	-11.535000	22.222630	0.000919	20.814801
194.047753	-2.997800	3.824500	-11.464000	22.220311	0.000919	20.821488
195.046520	-2.995800	3.826200	-11.461000	22.255706	0.000919	20.822788
196.049181	-3.006100	3.824300	-11.495000	22.252007	0.000921	20.821929
197.051084	-3.006900	3.823900	-11.497000	22.276255	0.000921	20.822027
198.049154	-2.989700	3.823500	-11.429000	22.291082	0.000922	20.814113
199.049153	-3.001200	3.824800	-11.478000	22.316971	0.000923	20.813958
200.047448	-3.002600	3.823500	-11.479000	22.305263	0.000922	20.817408
201.051334	-2.975400	3.822700	-11.373000	22.300119	0.000925	20.817947
202.051189	-2.999600	3.823100	-11.467000	22.311860	0.000925	20.818797
203.050591	-2.987500	3.822000	-11.417000	22.301638	0.000923	20.809984
204.051795	-2.992700	3.821500	-11.435000	22.323460	0.000924	20.813344
205.054860	-2.994600	3.821700	-11.443000	22.307214	0.000927	20.802291
206.047598	-2.989200	3.821900	-11.423000	22.347610	0.000925	20.809550
207.053436	-3.011300	3.821400	-11.506000	22.350989	0.000927	20.815305
208.047605	-3.019900	3.820600	-11.536000	22.362656	0.000926	20.817030
209.049146	-3.019000	3.821600	-11.535000	22.360924	0.000927	20.791115
210.047455	-3.011800	3.821600	-11.509000	22.394045	0.000927	20.794409
211.051255	-2.974100	3.821500	-11.363000	22.382950	0.000929	20.805584
212.053844	-2.990200	3.820600	-11.423000	22.360418	0.000929	20.789185
213.051855	-2.991500	3.821200	-11.429000	22.389366	0.000927	20.806319
214.055607	-3.021600	3.819000	-11.539000	22.420274	0.000928	20.801709
215.055243	-3.033700	3.818200	-11.582000	22.399407	0.000930	20.802150
216.052826	-2.990700	3.820500	-11.424000	22.413032	0.000929	20.802992
217.058067	-2.987500	3.820300	-11.412000	22.433490	0.000931	20.807357
218.054399	-3.010500	3.819300	-11.497000	22.436077	0.000932	20.795724
219.051919	-2.990800	3.820500	-11.425000	22.419808	0.000931	20.805035
220.057439	-3.009500	3.819300	-11.493000	22.450542	0.000931	20.808787
221.054259	-2.977900	3.819000	-11.372000	22.456526	0.000932	20.801977
222.055494	-2.984600	3.818900	-11.397000	22.463350	0.000933	20.803121
223.059251	-2.988300	3.818000	-11.407000	22.474680	0.000933	20.799295
224.060728	-2.986500	3.818600	-11.404000	22.480737	0.000933	20.799197
225.054514	-3.016300	3.815800	-11.509000	22.467309	0.000934	20.799500
226.056935	-2.998700	3.817100	-11.444000	22.474933	0.000935	20.786272
227.056262	-3.020500	3.817000	-11.527000	22.480859	0.000935	20.808328
228.054276	-3.009500	3.815200	-11.480000	22.479937	0.000935	20.802663
229.057029	-3.000300	3.817100	-11.451000	22.498377	0.000935	20.784147
230.055727	-3.000200	3.816800	-11.450000	22.511405	0.000936	20.783443
231.060493	-3.007300	3.816200	-11.476000	22.511609	0.000936	20.800243
232.059027	-2.994200	3.816100	-11.425000	22.507977	0.000939	20.779062
233.060079	-3.022100	3.815500	-11.529000	22.529649	0.000937	20.790809
234.059488	-3.009400	3.816300	-11.483000	22.523510	0.000937	20.779445
235.062375	-3.032700	3.813400	-11.564000	22.514483	0.000939	20.800277
236.059804	-2.996200	3.815400	-11.431000	22.518173	0.000940	20.799230
237.058963	-3.004100	3.815000	-11.458000	22.514279	0.000938	20.775890
238.065075	-2.962900	3.816400	-11.306000	22.516557	0.000937	20.772481
239.059241	-2.994500	3.813800	-11.420000	22.535632	0.000939	20.781629
240.058752	-2.988000	3.815100	-11.399000	22.548464	0.000940	20.779781
241.062218	-3.011600	3.814700	-11.486000	22.540040	0.000940	20.785095
242.066265	-2.996700	3.815100	-11.429000	22.529535	0.000942	20.786902
243.065926	-3.019900	3.812500	-11.512000	22.573809	0.000946	20.766284
244.071302	-3.002700	3.813700	-11.451000	22.575955	0.000942	20.794987
245.062623	-3.005700	3.811800	-11.455000	22.592729	0.000942	20.796140
246.063363	-3.002900	3.811200	-11.444000	22.575988	0.000944	20.776528
247.062751	-2.990100	3.813600	-11.402000	22.604662	0.000942	20.789600
248.062892	-2.986000	3.813500	-11.386000	22.615477	0.000945	20.774354
249.065936	-3.004000	3.812000	-11.449000	22.594027	0.000945	20.777526
250.063300	-2.979700	3.812300	-11.358000	22.602720	0.000945	20.786706
251.064003	-3.004400	3.812600	-11.453000	22.567369	0.000946	20.771215
252.063025	-2.995800	3.811200	-11.416000	22.571010	0.000947	20.765378
253.062996	-3.003200	3.811600	-11.446000	22.545918	0.000947	20.772490
254.071608	-2.994600	3.811000	-11.411000	22.548123	0.000946	20.768534
255.060947	-2.996700	3.811200	-11.420000	22.555518	0.000947	20.774044
256.071131	-2.977500	3.811700	-11.347000	22.526712	0.000947	20.768901
257.065161	-2.999000	3.809600	-11.424000	22.529675	0.000949	20.793206
258.062742	-2.980300	3.811100	-11.357000	22.520304	0.000949	20.763906
259.070564	-3.000900	3.808600	-11.428000	22.550139	0.000949	20.762492
260.070123	-2.998000	3.809200	-11.419000	22.587906	0.000951	20.768075
261.064528	-2.982400	3.809900	-11.362000	22.586299	0.000949	20.779742
262.065956	-2.998000	3.809300	-11.419000	22.603137	0.000951	20.768632
263.069853	-3.025100	3.809000	-11.521000	22.603602	0.000952	20.779529
264.067095	-3.002500	3.809700	-11.437000	22.647620	0.000953	20.769564
265.067475	-3.000600	3.809000	-11.428000	22.647963	0.000951	20.765166
266.068707	-2.989700	3.807700	-11.382000	22.627411	0.000951	20.773979
267.063488	-3.008300	3.807800	-11.454000	22.631647	0.000953	20.752617
268.070153	-2.998800	3.808500	-11.419000	22.637483	0.000955	20.769842
269.070894	-3.006500	3.806800	-11.444000	22.663855	0.000957	20.754056
270.064171	-3.007100	3.807800	-11.449000	22.664173	0.000955	20.768600
271.069972	-3.022100	3.807200	-11.505000	22.665364	0.000955	20.756043
272.070300	-3.011600	3.806400	-11.461000	22.691375	0.000955	20.765027
