LabVIEW Measurement	
Writer_Version	2
Reader_Version	2
Separator	Tab
Decimal_Separator	.
Multi_Headings	No
X_Columns	One
Time_Pref	Absolute
Operator	admin
Description	Clolumns are: time, Current, Voltage, Power, Battery Temp, and Chamber Temp
Date	2024/08/16
Time	13:06:06.104549407958984375
***End_of_Header***	
	
Channels	6						
Samples	1	1	1	1	1	1	
Date	2024/09/07	2024/09/07	2024/09/07	2024/09/07	2024/09/07	2024/09/07	
Time	06:17:38.7603974342346191406	06:17:38.772319793701171875	06:17:38.7783222198486328125	06:17:38.7447957992553710938	06:17:38.7447957992553710938	06:17:38.7447957992553710938	
X_Dimension	Time	Time	Time	Time	Time	Time	
X0	0.0000000000000000E+0	0.0000000000000000E+0	0.0000000000000000E+0	0.0000000000000000E+0	0.0000000000000000E+0	0.0000000000000000E+0	
Delta_X	1.000000	1.000000	1.000000	1.000000	1.000000	1.000000	
***End_of_Header***							
X_Value	Untitled	Untitled 1	Untitled 2	Untitled 3	Untitled 4	Untitled 5	Comment
0.000000	0.031299	4.098500	0.128230	20.943263	0.000907	20.702398
1.000550	-3.003000	3.925700	-11.788000	20.938448	0.000908	20.710386
2.002767	-2.973300	3.919300	-11.652000	20.927372	0.000908	20.722068
3.004496	-3.004200	3.915600	-11.762000	20.922712	0.000904	20.718356
4.000413	-2.986400	3.910000	-11.676000	20.915920	0.000903	20.716779
5.003627	-2.989500	3.907200	-11.680000	20.939200	0.000903	20.714931
6.003530	-3.005500	3.903600	-11.731000	20.932138	0.000904	20.737741
7.001076	-2.987200	3.902000	-11.655000	20.943042	0.000903	20.705022
8.003739	-3.000600	3.900500	-11.703000	20.927723	0.000902	20.720049
9.002065	-2.967000	3.898000	-11.564000	20.924454	0.000902	20.714882
10.000950	-2.978800	3.897100	-11.608000	20.938529	0.000901	20.700983
11.004313	-3.001200	3.894400	-11.686000	20.947488	0.000899	20.706150
12.005703	-2.996500	3.892700	-11.664000	20.953855	0.000900	20.722476
13.001065	-2.986200	3.891400	-11.619000	20.956095	0.000898	20.716182
14.004378	-3.018400	3.888300	-11.735000	20.976243	0.000896	20.731117
15.004831	-2.999500	3.887000	-11.657000	20.971993	0.000899	20.712641
16.000279	-2.998700	3.887500	-11.656000	20.978638	0.000897	20.723081
17.004084	-2.996800	3.885200	-11.642000	20.947520	0.000896	20.719459
18.004854	-2.999000	3.884700	-11.649000	20.975098	0.000896	20.732343
19.002553	-2.993000	3.883900	-11.624000	20.986149	0.000895	20.731068
20.006650	-2.973100	3.885000	-11.548000	20.991912	0.000894	20.734935
21.008157	-3.001500	3.882500	-11.653000	20.994486	0.000894	20.733243
22.004029	-2.995700	3.882900	-11.631000	20.999978	0.000893	20.715501
23.006375	-3.004600	3.880200	-11.657000	21.016072	0.000894	20.726383
24.007745	-3.016400	3.880400	-11.704000	21.024507	0.000891	20.730552
25.004692	-3.001700	3.878400	-11.640000	21.012427	0.000891	20.729375
26.008169	-3.017100	3.875700	-11.692000	21.032320	0.000892	20.743109
27.005660	-2.993300	3.878300	-11.607000	21.026755	0.000891	20.720946
28.004365	-2.996900	3.876800	-11.618000	21.045913	0.000891	20.737739
29.012384	-2.995300	3.877200	-11.612000	21.058271	0.000892	20.733977
30.008275	-3.017900	3.875500	-11.695000	21.054928	0.000890	20.739169
31.005170	-3.007200	3.875400	-11.653000	21.049067	0.000889	20.732832
32.008424	-2.995800	3.874000	-11.605000	21.054699	0.000890	20.738466
33.011449	-3.001000	3.873000	-11.621000	21.068871	0.000890	20.730830
34.006573	-2.987500	3.873400	-11.571000	21.069623	0.000889	20.747704
35.008714	-3.023500	3.871300	-11.704000	21.084195	0.000890	20.745210
36.010231	-3.005400	3.871900	-11.635000	21.082415	0.000889	20.755757
37.009817	-3.002900	3.870500	-11.622000	21.090309	0.000887	20.735677
38.012518	-3.002400	3.870900	-11.620000	21.107268	0.000888	20.748374
39.013326	-3.004300	3.870700	-11.628000	21.127030	0.000888	20.770987
40.009834	-3.016200	3.870000	-11.671000	21.129081	0.000887	20.725621
41.013707	-3.012800	3.870300	-11.659000	21.121668	0.000886	20.733380
42.014915	-3.010100	3.868700	-11.644000	21.154572	0.000886	20.756811
43.010747	-2.986900	3.870800	-11.561000	21.144028	0.000888	20.745790
44.015324	-2.995600	3.868700	-11.588000	21.147167	0.000885	20.760784
45.013283	-2.982700	3.869300	-11.541000	21.165899	0.000887	20.768616
46.014287	-3.022400	3.866600	-11.686000	21.168890	0.000886	20.743159
47.015063	-3.002200	3.867900	-11.611000	21.195883	0.000886	20.752143
48.014089	-2.995300	3.867200	-11.583000	21.180315	0.000885	20.754588
49.014737	-3.011400	3.865700	-11.640000	21.181541	0.000885	20.757236
50.015710	-3.012800	3.866300	-11.647000	21.181983	0.000884	20.740608
51.019471	-2.994500	3.866000	-11.575000	21.203116	0.000886	20.760801
52.014715	-2.989300	3.866300	-11.555000	21.198450	0.000885	20.755659
53.015087	-3.006300	3.863900	-11.615000	21.202863	0.000885	20.763393
54.014569	-2.994900	3.864400	-11.572000	21.202635	0.000885	20.752259
55.015969	-2.990600	3.865000	-11.557000	21.219347	0.000884	20.743372
56.017932	-3.014300	3.863500	-11.644000	21.225108	0.000884	20.776164
57.015676	-3.010600	3.864100	-11.632000	21.249362	0.000885	20.770555
58.017268	-3.021200	3.864000	-11.674000	21.282556	0.000883	20.758718
59.015640	-3.018700	3.862400	-11.659000	21.254976	0.000883	20.768584
60.016318	-3.020000	3.861400	-11.660000	21.272284	0.000885	20.773097
61.016859	-3.033500	3.861100	-11.712000	21.264455	0.000883	20.770955
62.016311	-3.006400	3.862900	-11.612000	21.288823	0.000882	20.764039
63.016045	-3.013300	3.861500	-11.633000	21.267095	0.000884	20.772174
64.019347	-3.000800	3.861700	-11.587000	21.287753	0.000883	20.765339
65.020047	-3.000100	3.861500	-11.583000	21.303017	0.000882	20.762592
66.021080	-3.002500	3.860700	-11.591000	21.292239	0.000885	20.758922
67.019587	-3.004400	3.862000	-11.602000	21.287303	0.000883	20.770579
68.018867	-2.995700	3.861100	-11.566000	21.310397	0.000883	20.763811
69.019296	-2.998900	3.861000	-11.578000	21.319588	0.000882	20.765420
70.017078	-3.002800	3.860500	-11.592000	21.317791	0.000882	20.772631
71.019303	-2.989700	3.860400	-11.540000	21.338145	0.000885	20.776399
72.019034	-2.968000	3.862000	-11.461000	21.342737	0.000884	20.765820
73.021574	-2.989800	3.860800	-11.542000	21.342786	0.000884	20.768240
74.018347	-3.002400	3.858100	-11.582000	21.369456	0.000884	20.771216
75.020217	-2.983600	3.859600	-11.514000	21.368101	0.000883	20.774127
76.019164	-2.988900	3.858400	-11.531000	21.368435	0.000885	20.778729
77.019954	-3.023300	3.858000	-11.663000	21.420639	0.000883	20.788285
78.020186	-2.998300	3.858100	-11.566000	21.395627	0.000885	20.778908
79.020428	-3.000000	3.858000	-11.573000	21.402981	0.000882	20.768248
80.020323	-3.001000	3.858200	-11.578000	21.418146	0.000884	20.767774
81.023350	-3.004800	3.856100	-11.585000	21.418105	0.000883	20.790966
82.021194	-2.988100	3.857300	-11.526000	21.424788	0.000883	20.781532
83.022594	-2.986700	3.857600	-11.520000	21.447560	0.000883	20.771599
84.021674	-2.991700	3.857300	-11.540000	21.439977	0.000882	20.799574
85.021342	-3.000400	3.854400	-11.564000	21.441178	0.000883	20.776120
86.023369	-2.986200	3.856500	-11.515000	21.473648	0.000882	20.778262
87.022478	-2.997200	3.855500	-11.555000	21.475993	0.000883	20.769228
88.023659	-3.014500	3.856100	-11.623000	21.496671	0.000883	20.794187
89.025062	-2.992500	3.854700	-11.534000	21.490069	0.000882	20.789003
90.022572	-3.009500	3.853700	-11.597000	21.496973	0.000882	20.776471
91.022652	-3.003700	3.854400	-11.576000	21.474333	0.000884	20.782266
92.024806	-2.984600	3.854400	-11.503000	21.490192	0.000884	20.772530
93.023763	-2.992700	3.854000	-11.533000	21.509301	0.000884	20.784539
94.023466	-2.988600	3.856000	-11.523000	21.518353	0.000883	20.793597
95.024515	-2.985700	3.854100	-11.506000	21.510649	0.000884	20.792052
96.026412	-2.993200	3.852900	-11.531000	21.500158	0.000883	20.787718
97.024879	-2.983000	3.852800	-11.491000	21.507167	0.000885	20.793310
98.028720	-2.993200	3.854500	-11.536000	21.523149	0.000885	20.801714
99.027351	-3.003900	3.852200	-11.570000	21.525395	0.000883	20.788315
100.025916	-3.002600	3.852600	-11.567000	21.551278	0.000886	20.817059
101.026168	-3.012500	3.853200	-11.605000	21.580982	0.000886	20.800791
102.026627	-3.026300	3.850300	-11.651000	21.575107	0.000887	20.790170
103.027425	-2.993200	3.852500	-11.531000	21.595376	0.000887	20.794332
104.027728	-3.007100	3.851000	-11.579000	21.610416	0.000887	20.809382
105.027623	-2.997500	3.852800	-11.548000	21.629025	0.000886	20.795762
106.028543	-2.988000	3.851800	-11.508000	21.605236	0.000885	20.805146
107.028903	-3.001900	3.849700	-11.554000	21.630348	0.000887	20.786180
108.032987	-3.007700	3.849900	-11.578000	21.646588	0.000886	20.802906
109.031095	-2.986600	3.850700	-11.500000	21.639841	0.000887	20.814647
110.029658	-3.027300	3.849900	-11.652000	21.669421	0.000887	20.783556
111.029750	-3.008300	3.849700	-11.579000	21.647732	0.000888	20.816379
112.028723	-3.010200	3.850100	-11.588000	21.647813	0.000887	20.787536
113.029159	-3.001300	3.849500	-11.552000	21.651048	0.000887	20.789826
114.029329	-3.004600	3.848800	-11.563000	21.657910	0.000887	20.805702
115.029408	-3.023000	3.848400	-11.632000	21.679623	0.000889	20.790922
116.032772	-2.999200	3.847900	-11.539000	21.683993	0.000888	20.819951
117.032281	-3.001800	3.849000	-11.552000	21.701197	0.000890	20.803977
118.034075	-3.011200	3.848500	-11.587000	21.690030	0.000890	20.796120
119.032760	-3.000000	3.848800	-11.546000	21.684344	0.000888	20.798491
120.033480	-2.993300	3.848500	-11.519000	21.690854	0.000889	20.805955
121.033878	-3.005000	3.847800	-11.562000	21.702380	0.000889	20.810377
122.032721	-2.992100	3.848400	-11.514000	21.718366	0.000888	20.818315
123.033441	-3.007900	3.846700	-11.570000	21.721339	0.000889	20.807065
124.036160	-3.017400	3.846500	-11.604000	21.710614	0.000889	20.809134
125.039478	-3.004800	3.846700	-11.556000	21.722981	0.000890	20.817244
126.033074	-3.017700	3.846700	-11.607000	21.738419	0.000889	20.782908
127.033909	-2.999600	3.845300	-11.533000	21.719623	0.000890	20.800607
128.035754	-2.999200	3.846600	-11.536000	21.744357	0.000890	20.791222
129.036695	-3.021000	3.845700	-11.617000	21.773607	0.000891	20.788728
130.033825	-3.009500	3.844900	-11.570000	21.782584	0.000889	20.793919
131.033523	-3.008800	3.844900	-11.567000	21.760897	0.000891	20.791180
132.035185	-3.041400	3.845200	-11.694000	21.762645	0.000892	20.781550
133.035016	-3.005400	3.846100	-11.558000	21.807439	0.000891	20.787976
134.035266	-3.000800	3.845500	-11.539000	21.790940	0.000893	20.772884
135.034791	-3.015200	3.845100	-11.593000	21.796625	0.000893	20.776678
136.034879	-2.995200	3.846800	-11.521000	21.810991	0.000892	20.769720
137.035391	-3.010700	3.843800	-11.571000	21.826151	0.000894	20.768772
138.037354	-3.017500	3.844500	-11.599000	21.835029	0.000894	20.774813
139.038105	-3.005800	3.843700	-11.552000	21.831566	0.000893	20.765182
140.037644	-3.023200	3.842600	-11.616000	21.838141	0.000895	20.773187
141.037262	-2.990400	3.843600	-11.492000	21.828610	0.000895	20.784510
142.037300	-3.021200	3.842300	-11.607000	21.812985	0.000894	20.778827
143.037130	-2.984200	3.843400	-11.469000	21.820915	0.000897	20.785817
144.037282	-3.005900	3.842700	-11.550000	21.828569	0.000895	20.784942
145.039174	-3.006400	3.842800	-11.552000	21.852655	0.000894	20.765902
146.037859	-3.012800	3.842500	-11.575000	21.850294	0.000893	20.772548
147.037873	-2.985800	3.842900	-11.473000	21.850564	0.000896	20.769025
148.037023	-3.019700	3.840700	-11.597000	21.848097	0.000897	20.761814
149.037994	-2.995300	3.842200	-11.507000	21.875622	0.000897	20.757122
150.039732	-3.002500	3.841100	-11.530000	21.884043	0.000898	20.756068
151.038714	-2.999300	3.841100	-11.519000	21.885120	0.000897	20.741973
152.039209	-2.979300	3.842100	-11.445000	21.898939	0.000897	20.767659
153.039431	-3.007600	3.840300	-11.549000	21.913974	0.000897	20.773700
154.039963	-2.990700	3.840300	-11.484000	21.906714	0.000898	20.755527
155.041023	-3.007000	3.841200	-11.550000	21.935315	0.000899	20.773251
156.040331	-3.010700	3.840000	-11.559000	21.920034	0.000900	20.783559
157.039995	-2.981600	3.840500	-11.450000	21.920361	0.000898	20.761126
158.043139	-2.990100	3.840100	-11.481000	21.916326	0.000899	20.752820
159.041434	-3.006800	3.839300	-11.542000	21.926389	0.000900	20.752461
160.041411	-2.988600	3.839100	-11.471000	21.922656	0.000901	20.759156
161.041959	-3.002700	3.839200	-11.527000	21.925007	0.000899	20.771467
162.043617	-2.995500	3.839600	-11.500000	21.917754	0.000901	20.765156
163.045710	-3.000700	3.838300	-11.516000	21.939038	0.000901	20.752321
164.042732	-3.022400	3.837700	-11.599000	21.937126	0.000903	20.753727
165.042245	-3.007700	3.836300	-11.537000	21.943218	0.000902	20.761247
166.042627	-2.994100	3.838400	-11.492000	21.943537	0.000902	20.770101
167.041883	-2.973900	3.839300	-11.417000	21.962190	0.000903	20.735192
168.044198	-3.021800	3.838500	-11.598000	21.974611	0.000903	20.740988
169.044647	-3.007400	3.837300	-11.539000	21.996807	0.000902	20.743767
170.042618	-2.984300	3.838300	-11.454000	21.970731	0.000904	20.748958
171.043056	-2.973200	3.838000	-11.410000	21.977583	0.000903	20.744912
172.044827	-2.979800	3.839100	-11.439000	21.975239	0.000904	20.744462
173.044426	-2.977300	3.836700	-11.422000	22.020448	0.000906	20.749889
174.042715	-2.985200	3.836800	-11.453000	22.025830	0.000905	20.748165
175.043870	-2.994600	3.835800	-11.486000	22.042408	0.000907	20.730146
176.049455	-2.996500	3.835400	-11.491000	22.058911	0.000905	20.756152
177.044856	-2.994500	3.835300	-11.485000	22.048091	0.000908	20.753855
178.044282	-2.981600	3.835200	-11.434000	22.062259	0.000907	20.760926
179.045354	-2.991400	3.834800	-11.470000	22.079326	0.000907	20.737234
180.044123	-2.984400	3.836300	-11.447000	22.095420	0.000907	20.742440
181.044366	-2.966500	3.836200	-11.378000	22.092652	0.000909	20.755317
182.045169	-2.995500	3.834800	-11.485000	22.103472	0.000908	20.760933
183.045953	-2.995700	3.835300	-11.487000	22.094294	0.000910	20.745106
184.046225	-3.015800	3.834700	-11.563000	22.080313	0.000909	20.749128
185.046106	-3.001900	3.835300	-11.511000	22.102728	0.000909	20.755921
186.046955	-2.994400	3.834700	-11.481000	22.086821	0.000910	20.730987
187.045813	-2.991500	3.833400	-11.465000	22.083015	0.000910	20.722434
188.048387	-3.008700	3.833300	-11.532000	22.090291	0.000909	20.744893
189.047192	-2.987400	3.833800	-11.453000	22.115049	0.000911	20.737910
190.046975	-2.995100	3.833200	-11.478000	22.122276	0.000911	20.740404
191.047316	-3.004300	3.833000	-11.512000	22.129682	0.000912	20.737861
192.045061	-2.986500	3.832900	-11.445000	22.130539	0.000911	20.716906
193.045601	-2.988000	3.832900	-11.452000	22.145196	0.000913	20.717356
194.049053	-3.008000	3.831700	-11.524000	22.127729	0.000913	20.726422
195.046720	-2.998600	3.831300	-11.487000	22.128627	0.000915	20.733486
196.046303	-3.019700	3.831400	-11.568000	22.130571	0.000915	20.749183
197.046482	-3.000800	3.831800	-11.497000	22.159566	0.000916	20.742176
198.048121	-2.993000	3.831700	-11.467000	22.166098	0.000915	20.721688
199.048662	-3.036700	3.829400	-11.628000	22.172753	0.000914	20.715074
200.048825	-2.996800	3.830800	-11.479000	22.183825	0.000917	20.756981
201.047659	-2.997700	3.830900	-11.483000	22.186077	0.000917	20.745011
202.047479	-2.994200	3.830200	-11.468000	22.189809	0.000917	20.734523
203.048442	-3.024100	3.828700	-11.577000	22.206171	0.000918	20.724826
204.048542	-3.003200	3.830500	-11.501000	22.222950	0.000919	20.720762
205.048994	-3.019500	3.829400	-11.562000	22.231074	0.000918	20.714197
206.049202	-3.010700	3.828000	-11.524000	22.238659	0.000918	20.724637
207.049026	-2.994400	3.829200	-11.464000	22.220092	0.000917	20.730229
208.050423	-2.997600	3.828800	-11.476000	22.252694	0.000919	20.729681
209.051090	-3.013200	3.829400	-11.538000	22.262099	0.000919	20.722976
210.053410	-2.990700	3.826800	-11.444000	22.267904	0.000921	20.711244
211.053560	-3.002000	3.828900	-11.493000	22.272769	0.000922	20.723229
212.054801	-3.001700	3.827800	-11.488000	22.283489	0.000921	20.739180
213.056201	-3.022900	3.826600	-11.567000	22.285980	0.000921	20.724129
214.055007	-3.009600	3.826400	-11.515000	22.300144	0.000922	20.738787
215.055418	-2.998500	3.827900	-11.477000	22.309762	0.000921	20.725183
216.056177	-3.001800	3.827300	-11.486000	22.315182	0.000923	20.714014
217.055481	-2.997800	3.828600	-11.476000	22.312113	0.000924	20.737020
218.054615	-2.995200	3.826900	-11.461000	22.318897	0.000925	20.735753
219.061711	-2.987000	3.828700	-11.435000	22.335796	0.000922	20.711422
220.054368	-3.011400	3.825000	-11.517000	22.311026	0.000923	20.728819
221.055483	-2.982500	3.826600	-11.411000	22.328080	0.000925	20.727404
222.058709	-2.989900	3.825500	-11.437000	22.334587	0.000928	20.719221
223.060752	-3.015500	3.824500	-11.532000	22.319132	0.000926	20.720341
224.057701	-2.998800	3.824200	-11.467000	22.326267	0.000928	20.715631
225.059878	-2.986300	3.825500	-11.423000	22.327394	0.000928	20.729562
226.058720	-2.967900	3.826800	-11.355000	22.359919	0.000927	20.682470
227.058489	-3.021400	3.824200	-11.553000	22.359029	0.000927	20.714772
228.062335	-2.981900	3.826300	-11.408000	22.373911	0.000929	20.706914
229.057734	-2.972200	3.825800	-11.369000	22.374483	0.000928	20.716022
230.057901	-3.004800	3.823800	-11.488000	22.389561	0.000929	20.688920
231.059178	-2.973000	3.825100	-11.370000	22.376384	0.000930	20.715081
232.059103	-3.002900	3.822500	-11.477000	22.373821	0.000930	20.708721
233.057627	-3.007800	3.824200	-11.502000	22.377356	0.000930	20.695190
234.061097	-2.984400	3.824600	-11.413000	22.395054	0.000932	20.702008
235.059432	-2.975100	3.823700	-11.375000	22.393357	0.000932	20.700782
236.060021	-3.004200	3.823000	-11.483000	22.399895	0.000932	20.721556
237.061494	-3.004700	3.822500	-11.485000	22.397331	0.000935	20.712350
238.060459	-2.996200	3.822600	-11.453000	22.418099	0.000933	20.715129
239.060564	-2.999700	3.822500	-11.465000	22.421006	0.000934	20.712824
240.062540	-3.006200	3.823000	-11.491000	22.412287	0.000935	20.684176
241.061992	-2.995600	3.821000	-11.445000	22.415854	0.000933	20.713829
242.060741	-3.009900	3.821200	-11.499000	22.431234	0.000935	20.698409
243.066469	-2.975000	3.822100	-11.369000	22.425226	0.000935	20.696186
244.062265	-2.987100	3.820700	-11.412000	22.435919	0.000937	20.707370
245.062186	-2.999900	3.819900	-11.458000	22.431592	0.000935	20.693078
246.065547	-3.015400	3.819400	-11.516000	22.458156	0.000937	20.711146
247.062787	-2.986600	3.820900	-11.410000	22.430923	0.000938	20.695727
248.062587	-2.989000	3.820000	-11.417000	22.455585	0.000937	20.721374
249.065079	-2.999600	3.819100	-11.455000	22.458629	0.000939	20.698818
250.064147	-2.995600	3.820500	-11.444000	22.465037	0.000939	20.721358
251.064057	-3.005100	3.819800	-11.478000	22.478424	0.000938	20.699201
252.066330	-2.969400	3.820600	-11.344000	22.465314	0.000941	20.696029
253.070428	-2.977800	3.818600	-11.370000	22.482293	0.000939	20.720147
254.065605	-3.002600	3.819400	-11.466000	22.500586	0.000939	20.693420
255.069668	-3.000000	3.817900	-11.452000	22.495974	0.000942	20.697336
256.065749	-2.963800	3.819400	-11.317000	22.521891	0.000942	20.700533
257.069746	-3.016500	3.817800	-11.514000	22.520274	0.000942	20.687533
258.068621	-2.992400	3.817100	-11.421000	22.530918	0.000942	20.698194
259.067749	-2.978900	3.818900	-11.374000	22.524845	0.000943	20.685946
260.067551	-3.002400	3.817100	-11.459000	22.531326	0.000943	20.700025
261.069959	-2.995100	3.816100	-11.428000	22.551887	0.000943	20.687900
262.068125	-3.020600	3.816500	-11.527000	22.548696	0.000945	20.696558
263.068763	-3.001100	3.817000	-11.454000	22.569730	0.000944	20.684433
264.069084	-2.987000	3.817700	-11.403000	22.579223	0.000946	20.703900
265.067757	-3.007700	3.817100	-11.479000	22.584765	0.000945	20.685267
266.069818	-2.973600	3.818500	-11.353000	22.599742	0.000947	20.691259
267.070039	-3.010500	3.815000	-11.484000	22.604557	0.000948	20.674269
268.073618	-2.993100	3.815100	-11.418000	22.591832	0.000949	20.705623
269.069142	-2.998700	3.815700	-11.441000	22.614107	0.000948	20.699483
270.070298	-2.987400	3.815800	-11.398000	22.620710	0.000950	20.666739
271.074825	-2.999700	3.815300	-11.443000	22.617200	0.000950	20.678398
272.070175	-2.980000	3.815200	-11.367000	22.624227	0.000949	20.687334
