LabVIEW Measurement	
Writer_Version	2
Reader_Version	2
Separator	Tab
Decimal_Separator	.
Multi_Headings	No
X_Columns	One
Time_Pref	Absolute
Operator	admin
Description	Clolumns are: time, Current, Voltage, Power, Battery Temp, and Chamber Temp
Date	2024/08/16
Time	13:06:06.104549407958984375
***End_of_Header***	
	
Channels	6						
Samples	1	1	1	1	1	1	
Date	2024/09/09	2024/09/09	2024/09/09	2024/09/09	2024/09/09	2024/09/09	
Time	15:26:47.7062830924987792969	15:26:47.7122721672058105469	15:26:47.7173066139221191406	15:26:47.68929290771484375	15:26:47.68929290771484375	15:26:47.68929290771484375	
X_Dimension	Time	Time	Time	Time	Time	Time	
X0	0.0000000000000000E+0	0.0000000000000000E+0	0.0000000000000000E+0	0.0000000000000000E+0	0.0000000000000000E+0	0.0000000000000000E+0	
Delta_X	1.000000	1.000000	1.000000	1.000000	1.000000	1.000000	
***End_of_Header***							
X_Value	Untitled	Untitled 1	Untitled 2	Untitled 3	Untitled 4	Untitled 5	Comment
0.000000	0.008270	4.097100	0.033844	21.037822	0.000912	20.842495
0.998575	-3.002600	3.923000	-11.777000	21.036331	0.000911	20.853331
2.001318	-3.010000	3.916100	-11.787000	21.041768	0.000909	20.868251
2.998227	-3.017900	3.910200	-11.799000	21.032815	0.000907	20.838436
4.004076	-3.015200	3.906000	-11.776000	21.023858	0.000907	20.852709
4.999260	-3.016800	3.903200	-11.774000	21.024134	0.000907	20.850615
6.000705	-3.015900	3.899500	-11.759000	21.044672	0.000908	20.859302
7.002653	-2.997900	3.898700	-11.687000	21.044346	0.000904	20.852813
7.998793	-2.984100	3.895800	-11.623000	21.054731	0.000904	20.840915
8.999002	-2.983800	3.894500	-11.620000	21.065935	0.000901	20.865397
10.001270	-3.001500	3.893500	-11.685000	21.054212	0.000902	20.857465
11.000191	-2.990500	3.891400	-11.636000	21.045353	0.000902	20.846234
12.000498	-3.000100	3.890900	-11.672000	21.055062	0.000903	20.833660
13.010614	-3.001000	3.887900	-11.666000	21.075223	0.000902	20.864256
14.002511	-3.012500	3.887100	-11.709000	21.074177	0.000902	20.839029
15.004066	-3.001400	3.886400	-11.664000	21.050677	0.000901	20.826904
16.004290	-3.004600	3.883600	-11.668000	21.075154	0.000899	20.833843
17.001236	-2.998200	3.882500	-11.639000	21.068370	0.000899	20.830376
18.006185	-3.000500	3.882500	-11.649000	21.071871	0.000900	20.851421
19.002934	-3.001800	3.880300	-11.647000	21.098713	0.000900	20.854088
20.008991	-3.005500	3.880000	-11.660000	21.105508	0.000897	20.856143
21.003735	-3.012400	3.878200	-11.682000	21.083623	0.000896	20.839943
22.008788	-2.999200	3.879000	-11.633000	21.091712	0.000899	20.862731
23.004231	-3.012300	3.877300	-11.679000	21.106481	0.000898	20.846211
24.009274	-3.017100	3.876700	-11.695000	21.118786	0.000898	20.822484
25.002698	-2.989900	3.876300	-11.589000	21.142383	0.000896	20.840872
26.003221	-2.995300	3.876600	-11.610000	21.130538	0.000899	20.856049
27.003311	-3.001400	3.874500	-11.626000	21.134651	0.000896	20.847361
28.004574	-2.986800	3.874900	-11.573000	21.136097	0.000897	20.847386
29.005645	-2.988000	3.875100	-11.577000	21.134522	0.000896	20.829690
30.007867	-3.000400	3.872400	-11.618000	21.150747	0.000896	20.835489
31.009498	-2.995500	3.873200	-11.600000	21.166335	0.000897	20.849658
32.003204	-3.001700	3.870900	-11.618000	21.144679	0.000896	20.852651
33.004795	-3.001900	3.871400	-11.619000	21.166508	0.000895	20.832288
34.009646	-2.997100	3.869700	-11.597000	21.175790	0.000896	20.814073
35.004521	-2.992400	3.870400	-11.581000	21.170823	0.000897	20.828544
36.006468	-3.002300	3.869800	-11.618000	21.197466	0.000896	20.825324
37.007332	-3.009700	3.869200	-11.644000	21.180175	0.000894	20.825097
38.007796	-2.993100	3.868900	-11.579000	21.197663	0.000896	20.848280
39.010125	-2.997700	3.868800	-11.596000	21.196187	0.000895	20.826889
40.011362	-3.008400	3.868300	-11.636000	21.215793	0.000894	20.824691
41.018909	-3.007500	3.867800	-11.632000	21.223648	0.000894	20.827334
42.014091	-3.012600	3.865800	-11.645000	21.240287	0.000893	20.825012
43.007132	-3.030500	3.866900	-11.717000	21.232273	0.000894	20.832643
44.009834	-3.012400	3.866000	-11.645000	21.248364	0.000894	20.833092
45.013292	-3.000400	3.866400	-11.599000	21.251884	0.000892	20.835666
46.011938	-3.001700	3.865400	-11.602000	21.262104	0.000893	20.821234
47.008032	-3.019600	3.863200	-11.665000	21.250684	0.000893	20.822138
48.010817	-3.003500	3.864400	-11.606000	21.272832	0.000893	20.831018
49.011000	-2.985900	3.863200	-11.533000	21.283002	0.000893	20.824123
50.010854	-3.000400	3.863700	-11.591000	21.277857	0.000894	20.832726
51.011808	-3.024800	3.862500	-11.682000	21.282301	0.000892	20.829585
52.016160	-2.994500	3.862100	-11.564000	21.298089	0.000893	20.830682
53.016525	-2.989500	3.862300	-11.546000	21.321535	0.000894	20.828059
54.014491	-3.010300	3.861300	-11.622000	21.333205	0.000894	20.822665
55.019231	-3.002200	3.860000	-11.587000	21.301520	0.000894	20.823683
56.012074	-3.023500	3.859300	-11.667000	21.289894	0.000894	20.834810
57.017587	-2.983800	3.859800	-11.516000	21.310416	0.000894	20.821203
58.016342	-3.006700	3.858700	-11.601000	21.323232	0.000895	20.832128
59.015103	-2.983800	3.860800	-11.518000	21.328771	0.000895	20.839566
60.015765	-2.989400	3.860000	-11.539000	21.339593	0.000894	20.821944
61.021067	-3.027300	3.857700	-11.677000	21.348168	0.000894	20.840479
62.017980	-3.000800	3.858300	-11.577000	21.352196	0.000893	20.809423
63.018181	-3.002900	3.858200	-11.585000	21.371005	0.000894	20.821128
64.020045	-2.983400	3.857800	-11.508000	21.375566	0.000893	20.821899
65.022631	-2.993100	3.858100	-11.546000	21.395342	0.000894	20.826986
66.019707	-2.994100	3.857400	-11.548000	21.386802	0.000893	20.824131
67.019014	-3.000800	3.858100	-11.575000	21.397425	0.000894	20.849932
68.022126	-2.983000	3.858100	-11.508000	21.425750	0.000895	20.822797
69.021818	-3.008700	3.856600	-11.602000	21.424126	0.000895	20.831129
70.022875	-2.989600	3.857700	-11.531000	21.423248	0.000893	20.843526
71.026906	-2.985900	3.855600	-11.512000	21.429304	0.000895	20.824457
72.023809	-2.993000	3.856200	-11.540000	21.446661	0.000894	20.823805
73.021683	-3.002700	3.855400	-11.575000	21.431738	0.000893	20.834478
74.028064	-3.026100	3.854900	-11.665000	21.456276	0.000894	20.818727
75.024724	-3.006500	3.856000	-11.593000	21.458118	0.000896	20.821992
76.022775	-3.004500	3.856800	-11.586000	21.455116	0.000895	20.836058
77.026697	-2.996300	3.854800	-11.550000	21.469273	0.000895	20.825567
78.035830	-3.008000	3.853700	-11.591000	21.479274	0.000895	20.836522
79.027399	-3.001900	3.853600	-11.568000	21.488490	0.000894	20.831993
80.023700	-2.986000	3.855400	-11.511000	21.476090	0.000895	20.814371
81.030024	-3.009000	3.852700	-11.592000	21.474338	0.000894	20.808350
82.029628	-3.001800	3.852700	-11.563000	21.487522	0.000896	20.812059
83.029776	-2.982400	3.852600	-11.487000	21.494946	0.000897	20.812375
84.024208	-2.962000	3.854000	-11.415000	21.502972	0.000895	20.819458
85.026803	-2.990100	3.851900	-11.517000	21.494260	0.000894	20.835870
86.031083	-3.008300	3.851000	-11.583000	21.499418	0.000897	20.829652
87.028868	-2.999000	3.851200	-11.548000	21.506062	0.000897	20.805006
88.030087	-2.996800	3.850900	-11.540000	21.537233	0.000896	20.820549
89.032884	-3.005300	3.850600	-11.571000	21.538502	0.000895	20.827983
90.032157	-3.006700	3.850100	-11.575000	21.534149	0.000895	20.811299
91.030939	-3.013700	3.849400	-11.600000	21.557288	0.000896	20.804582
92.035829	-2.992100	3.851900	-11.525000	21.558330	0.000897	20.807520
93.036921	-3.026600	3.849800	-11.651000	21.552757	0.000898	20.821384
94.032526	-3.009300	3.849600	-11.583000	21.568162	0.000898	20.825894
95.027739	-2.998100	3.850200	-11.543000	21.602495	0.000897	20.801930
96.027528	-3.009400	3.850300	-11.586000	21.602959	0.000896	20.817093
97.030509	-2.992900	3.849200	-11.519000	21.597491	0.000897	20.832009
98.032835	-2.999700	3.848600	-11.543000	21.590122	0.000897	20.811359
99.029068	-2.999800	3.848700	-11.545000	21.605852	0.000899	20.836583
100.029719	-3.008300	3.847800	-11.574000	21.614672	0.000898	20.843038
101.030225	-3.008100	3.847200	-11.571000	21.638931	0.000899	20.829382
102.030706	-2.994200	3.848100	-11.520000	21.627871	0.000899	20.813573
103.032606	-3.003100	3.847100	-11.551000	21.635146	0.000898	20.830810
104.029467	-3.002600	3.847300	-11.550000	21.650150	0.000897	20.802203
105.032962	-3.017400	3.846400	-11.604000	21.665953	0.000898	20.813751
106.029680	-3.009200	3.846700	-11.575000	21.666467	0.000898	20.819481
107.030938	-3.008300	3.845700	-11.568000	21.666956	0.000896	20.829453
108.036189	-3.016600	3.846300	-11.601000	21.663778	0.000898	20.809203
109.036035	-3.000200	3.846600	-11.540000	21.697185	0.000898	20.828886
110.036435	-2.987300	3.845100	-11.485000	21.704934	0.000900	20.825735
111.037783	-2.963700	3.845500	-11.395000	21.734728	0.000898	20.822836
112.035487	-2.973100	3.844900	-11.430000	21.731822	0.000900	20.825143
113.037097	-2.987400	3.845400	-11.486000	21.731393	0.000898	20.813334
114.035174	-2.989100	3.845000	-11.493000	21.728091	0.000899	20.825677
115.032900	-2.989000	3.844800	-11.491000	21.740425	0.000897	20.802459
116.033166	-2.997300	3.843300	-11.518000	21.744432	0.000897	20.827333
117.040902	-2.978500	3.846700	-11.455000	21.723306	0.000898	20.826577
118.032927	-2.991300	3.845000	-11.500000	21.750829	0.000900	20.827570
119.042748	-2.985200	3.843900	-11.474000	21.743491	0.000898	20.816433
120.038520	-3.017200	3.843200	-11.593000	21.734702	0.000899	20.823759
121.036970	-3.004000	3.843200	-11.543000	21.761006	0.000898	20.809781
122.039230	-3.004700	3.842400	-11.544000	21.751847	0.000898	20.816262
123.039830	-3.006200	3.842800	-11.552000	21.763563	0.000897	20.812815
124.045123	-3.016300	3.843600	-11.593000	21.751389	0.000899	20.817700
125.035916	-3.010200	3.843000	-11.567000	21.751083	0.000900	20.830670
126.037885	-3.030000	3.841000	-11.636000	21.784666	0.000901	20.823504
127.035434	-3.010900	3.841300	-11.565000	21.778004	0.000899	20.817311
128.039875	-2.995200	3.842100	-11.506000	21.779293	0.000898	20.831402
129.041154	-2.988800	3.842500	-11.484000	21.780038	0.000899	20.815553
130.042064	-2.978200	3.842000	-11.441000	21.783053	0.000900	20.817148
131.039973	-2.998600	3.841500	-11.519000	21.821220	0.000898	20.833062
132.044376	-3.006400	3.841200	-11.547000	21.833112	0.000900	20.811775
133.043157	-2.994400	3.840800	-11.499000	21.797079	0.000900	20.819332
134.041186	-2.997700	3.840500	-11.512000	21.822809	0.000899	20.801463
135.043092	-3.013800	3.840600	-11.573000	21.829066	0.000900	20.806778
136.043304	-3.009400	3.840600	-11.557000	21.832950	0.000900	20.827734
137.044512	-3.002200	3.840800	-11.528000	21.839780	0.000900	20.825087
138.037783	-3.003800	3.839800	-11.532000	21.866057	0.000902	20.817723
139.038974	-2.977200	3.841100	-11.435000	21.856488	0.000901	20.814784
140.046171	-2.997700	3.840500	-11.511000	21.866757	0.000901	20.792346
141.041507	-3.008000	3.839800	-11.547000	21.861394	0.000902	20.809737
142.041638	-3.009000	3.839500	-11.551000	21.864858	0.000900	20.809411
143.042690	-2.978800	3.840000	-11.438000	21.876454	0.000902	20.821966
144.043694	-3.009000	3.838400	-11.548000	21.889639	0.000902	20.802447
145.043280	-3.011900	3.837800	-11.559000	21.916739	0.000901	20.802546
146.043651	-2.995400	3.838300	-11.496000	21.927115	0.000901	20.813881
147.041173	-2.995700	3.839000	-11.499000	21.926365	0.000902	20.805544
148.041750	-2.994000	3.837000	-11.487000	21.929602	0.000906	20.816845
149.051807	-3.002900	3.837400	-11.522000	21.950745	0.000903	20.804344
150.044475	-3.021600	3.836000	-11.590000	21.959321	0.000903	20.802971
151.046793	-3.017000	3.837500	-11.577000	21.944439	0.000903	20.789971
152.044853	-3.008300	3.836800	-11.541000	21.977823	0.000903	20.806793
153.044253	-2.984400	3.836900	-11.448000	21.957974	0.000905	20.797829
154.044336	-2.998300	3.836900	-11.503000	21.985727	0.000904	20.795265
155.044343	-3.002600	3.836600	-11.518000	21.981785	0.000905	20.800328
156.044751	-3.006900	3.834200	-11.527000	22.005868	0.000905	20.777494
157.041961	-2.982100	3.836900	-11.441000	21.997544	0.000907	20.808517
158.049049	-2.993000	3.836400	-11.482000	22.002853	0.000907	20.805297
159.045432	-2.960200	3.838000	-11.359000	22.012524	0.000905	20.797434
160.043289	-2.991900	3.835500	-11.473000	22.020951	0.000906	20.794964
161.051729	-2.993700	3.834800	-11.479000	22.018958	0.000907	20.806245
162.048687	-2.990100	3.835300	-11.467000	22.014196	0.000906	20.801479
163.046637	-2.986600	3.835200	-11.453000	21.999217	0.000905	20.786009
164.044969	-2.979300	3.834500	-11.423000	22.016865	0.000906	20.795142
165.046667	-2.997100	3.834900	-11.492000	22.020181	0.000907	20.795142
166.048427	-3.011400	3.833000	-11.542000	22.040700	0.000907	20.801933
167.052451	-2.990600	3.832600	-11.461000	22.030424	0.000906	20.805395
168.042508	-3.002700	3.834100	-11.510000	22.061639	0.000907	20.800609
169.048034	-3.001800	3.833100	-11.506000	22.063608	0.000908	20.780769
170.049611	-3.007000	3.832600	-11.523000	22.062438	0.000910	20.776279
171.049625	-2.979400	3.833200	-11.419000	22.064387	0.000912	20.782971
172.051619	-2.996900	3.832000	-11.483000	22.085054	0.000911	20.776160
173.050589	-3.028600	3.830900	-11.601000	22.068926	0.000912	20.785618
174.055161	-2.986700	3.832300	-11.445000	22.083431	0.000912	20.781647
175.046474	-3.019800	3.830200	-11.566000	22.075936	0.000911	20.780308
176.049973	-3.034100	3.830500	-11.622000	22.096474	0.000912	20.797077
177.051392	-2.997700	3.830800	-11.483000	22.073745	0.000913	20.779538
178.049187	-3.010100	3.831200	-11.531000	22.080800	0.000913	20.780436
179.045959	-3.004700	3.830300	-11.508000	22.104935	0.000913	20.755760
180.052014	-3.016000	3.830000	-11.550000	22.110371	0.000916	20.790601
181.054686	-3.009800	3.830800	-11.528000	22.117105	0.000915	20.778376
182.049748	-3.011400	3.829500	-11.531000	22.118600	0.000916	20.786511
183.055333	-3.005800	3.829800	-11.510000	22.159157	0.000917	20.781596
184.050066	-2.982800	3.831300	-11.426000	22.151386	0.000918	20.774291
185.049807	-2.993600	3.828200	-11.459000	22.159990	0.000917	20.765835
186.053707	-3.004900	3.828000	-11.501000	22.160888	0.000918	20.781432
187.055946	-2.992200	3.829300	-11.457000	22.209469	0.000919	20.774122
188.051452	-2.970300	3.830200	-11.374000	22.171691	0.000920	20.760954
189.049041	-2.998600	3.828000	-11.478000	22.181064	0.000919	20.774132
190.047341	-3.007600	3.827300	-11.510000	22.200308	0.000919	20.762105
191.049689	-3.014100	3.827700	-11.537000	22.214495	0.000920	20.777732
192.056006	-3.017500	3.827000	-11.546000	22.221450	0.000922	20.761936
193.055271	-3.000200	3.827600	-11.483000	22.247180	0.000923	20.779638
194.049520	-3.007900	3.826400	-11.507000	22.245063	0.000922	20.777993
195.057301	-2.990300	3.828600	-11.448000	22.261362	0.000924	20.771078
196.047391	-2.982000	3.827300	-11.412000	22.284047	0.000924	20.779568
197.053178	-2.995900	3.825300	-11.459000	22.275750	0.000924	20.782640
198.052745	-2.999000	3.826900	-11.476000	22.291904	0.000924	20.781272
199.049055	-3.007300	3.825000	-11.501000	22.285847	0.000924	20.761456
200.053266	-2.992800	3.826000	-11.449000	22.290933	0.000927	20.767971
201.056348	-2.988100	3.825900	-11.431000	22.286972	0.000927	20.767798
202.052332	-3.005900	3.824700	-11.494000	22.301577	0.000928	20.761559
203.051860	-2.995700	3.825900	-11.460000	22.288220	0.000928	20.767151
204.053095	-3.003900	3.825400	-11.490000	22.306115	0.000929	20.764207
205.052558	-3.013600	3.824400	-11.524000	22.316434	0.000930	20.757470
206.048161	-3.015500	3.823200	-11.529000	22.323063	0.000931	20.761737
207.053625	-2.981100	3.825500	-11.403000	22.334951	0.000931	20.771744
208.052680	-3.007400	3.823800	-11.498000	22.336993	0.000931	20.767151
209.049026	-3.002900	3.823400	-11.481000	22.359441	0.000933	20.771611
210.054922	-3.015100	3.823200	-11.526000	22.370060	0.000932	20.767072
211.056849	-2.992300	3.824300	-11.443000	22.391116	0.000931	20.767294
212.054123	-2.987900	3.823000	-11.422000	22.383136	0.000934	20.761674
213.059597	-2.999200	3.823000	-11.464000	22.377434	0.000932	20.761654
214.057850	-2.991400	3.823200	-11.436000	22.389938	0.000933	20.760424
215.052538	-3.003200	3.821400	-11.474000	22.415176	0.000934	20.773844
216.059435	-2.989800	3.823200	-11.430000	22.415975	0.000934	20.784128
217.057488	-3.000100	3.822700	-11.468000	22.437174	0.000934	20.775485
218.051812	-2.974500	3.823000	-11.371000	22.440488	0.000935	20.762682
219.057577	-3.019000	3.821500	-11.536000	22.444596	0.000936	20.777703
220.057861	-3.016800	3.821200	-11.527000	22.450998	0.000935	20.766096
221.053814	-2.992400	3.822300	-11.435000	22.468393	0.000937	20.767869
222.055766	-3.004700	3.820700	-11.479000	22.484387	0.000935	20.767291
223.060629	-2.997500	3.821200	-11.452000	22.461632	0.000936	20.810884
224.057938	-2.999000	3.821600	-11.460000	22.454954	0.000937	20.784756
225.058218	-3.016800	3.819200	-11.520000	22.442841	0.000938	20.775471
226.062650	-3.028500	3.819200	-11.565000	22.445085	0.000937	20.781511
227.056527	-2.995100	3.819700	-11.440000	22.471294	0.000939	20.775516
228.065861	-2.999000	3.818200	-11.450000	22.469627	0.000941	20.780484
229.063392	-3.003500	3.818200	-11.466000	22.454817	0.000941	20.768023
230.058875	-2.987200	3.819700	-11.410000	22.467250	0.000940	20.775733
231.065351	-3.007100	3.819100	-11.484000	22.468799	0.000941	20.758792
232.063397	-2.995100	3.819600	-11.439000	22.477539	0.000942	20.758535
233.060750	-3.005200	3.819000	-11.475000	22.484443	0.000941	20.763553
234.063795	-3.018200	3.817700	-11.522000	22.481692	0.000941	20.788774
235.062570	-3.020500	3.819100	-11.534000	22.526423	0.000944	20.776198
236.065005	-3.012000	3.817700	-11.497000	22.527986	0.000944	20.791041
237.062155	-3.012600	3.817200	-11.497000	22.523799	0.000943	20.783528
238.061954	-3.025500	3.817900	-11.550000	22.524495	0.000943	20.785648
239.061756	-2.996800	3.818100	-11.440000	22.518932	0.000945	20.778180
240.068954	-3.000000	3.816900	-11.449000	22.517813	0.000944	20.780378
241.060290	-3.011800	3.817000	-11.494000	22.552566	0.000945	20.763027
242.062191	-2.978300	3.817600	-11.369000	22.547309	0.000946	20.763452
243.069122	-3.000100	3.817900	-11.452000	22.555826	0.000945	20.779569
244.067650	-3.003900	3.818100	-11.468000	22.569284	0.000945	20.786883
245.060546	-2.987400	3.815500	-11.397000	22.594972	0.000947	20.801231
246.067185	-3.000600	3.815400	-11.447000	22.586027	0.000946	20.785634
247.067636	-3.002300	3.815700	-11.455000	22.599805	0.000947	20.779045
248.061369	-2.993400	3.815500	-11.420000	22.613780	0.000947	20.783560
249.067681	-3.009200	3.814300	-11.477000	22.607276	0.000948	20.780838
250.067233	-2.996200	3.814500	-11.427000	22.633486	0.000948	20.790020
251.063939	-2.983600	3.814300	-11.379000	22.623564	0.000951	20.785299
252.064466	-3.002500	3.814000	-11.450000	22.609244	0.000951	20.790396
253.067819	-2.983200	3.814800	-11.379000	22.611310	0.000950	20.785353
254.064647	-2.991400	3.814700	-11.411000	22.655607	0.000952	20.789892
255.072857	-2.995200	3.813400	-11.421000	22.633102	0.000951	20.792007
256.070090	-3.003400	3.813100	-11.451000	22.631933	0.000952	20.787043
257.067690	-3.000800	3.813900	-11.443000	22.640183	0.000951	20.787719
258.070734	-2.976100	3.813100	-11.346000	22.636692	0.000951	20.794654
259.070542	-2.980400	3.813000	-11.363000	22.643393	0.000952	20.809901
260.068311	-3.012700	3.811900	-11.482000	22.657821	0.000951	20.802067
261.067496	-2.996800	3.812400	-11.424000	22.679148	0.000955	20.792609
262.070160	-3.002500	3.811400	-11.442000	22.696337	0.000954	20.795128
263.068249	-3.010900	3.811000	-11.474000	22.670504	0.000954	20.774467
264.072312	-2.996500	3.810700	-11.418000	22.679099	0.000954	20.808206
265.068870	-3.025500	3.810200	-11.527000	22.655578	0.000955	20.811674
266.069623	-2.994800	3.810100	-11.408000	22.672422	0.000956	20.819062
267.070534	-3.005600	3.811400	-11.455000	22.697309	0.000957	20.821231
268.071791	-2.987900	3.810800	-11.385000	22.703388	0.000956	20.792234
269.070771	-3.003400	3.810200	-11.443000	22.703837	0.000956	20.812597
270.071252	-2.978400	3.811100	-11.350000	22.738619	0.000957	20.787694
271.071086	-2.984500	3.810900	-11.372000	22.743451	0.000957	20.804389
272.067682	-3.006100	3.808200	-11.447000	22.758080	0.000960	20.789645
