LabVIEW Measurement	
Writer_Version	2
Reader_Version	2
Separator	Tab
Decimal_Separator	.
Multi_Headings	No
X_Columns	One
Time_Pref	Absolute
Operator	admin
Description	Clolumns are: time, Current, Voltage, Power, Battery Temp, and Chamber Temp
Date	2024/08/16
Time	13:06:06.104549407958984375
***End_of_Header***	
	
Channels	6						
Samples	1	1	1	1	1	1	
Date	2024/09/14	2024/09/14	2024/09/14	2024/09/14	2024/09/14	2024/09/14	
Time	23:59:02.7742071151733398438	23:59:02.7812066078186035156	23:59:02.7881960868835449219	23:59:02.7522521018981933594	23:59:02.7522521018981933594	23:59:02.7522521018981933594	
X_Dimension	Time	Time	Time	Time	Time	Time	
X0	0.0000000000000000E+0	0.0000000000000000E+0	0.0000000000000000E+0	0.0000000000000000E+0	0.0000000000000000E+0	0.0000000000000000E+0	
Delta_X	1.000000	1.000000	1.000000	1.000000	1.000000	1.000000	
***End_of_Header***							
X_Value	Untitled	Untitled 1	Untitled 2	Untitled 3	Untitled 4	Untitled 5	Comment
0.000000	0.025654	4.093600	0.105030	21.067506	0.000936	20.870761
0.997349	-3.003900	3.911400	-11.747000	21.053534	0.000935	20.875752
1.999073	-2.997700	3.906700	-11.709000	21.060295	0.000936	20.855963
2.997927	-2.976100	3.900300	-11.607000	21.071148	0.000936	20.889102
4.000559	-3.002800	3.896200	-11.699000	21.066208	0.000934	20.891273
4.993910	-2.998500	3.893500	-11.674000	21.070050	0.000934	20.892271
5.998969	-3.000400	3.891500	-11.675000	21.073393	0.000931	20.879494
7.001178	-2.978900	3.888200	-11.582000	21.077584	0.000931	20.869937
8.000402	-2.999700	3.887000	-11.659000	21.075140	0.000931	20.879344
9.003505	-2.986900	3.882700	-11.595000	21.090134	0.000930	20.884385
9.997382	-3.018200	3.880100	-11.710000	21.088038	0.000927	20.893667
10.999704	-2.994400	3.880400	-11.618000	21.078283	0.000928	20.891496
12.003751	-2.967000	3.880500	-11.512000	21.100088	0.000927	20.904771
12.999090	-3.013500	3.876300	-11.680000	21.100238	0.000928	20.902551
13.999850	-3.005100	3.875800	-11.645000	21.104479	0.000926	20.888302
14.999351	-2.990500	3.873900	-11.583000	21.118051	0.000927	20.882438
15.998223	-3.014000	3.873400	-11.673000	21.128405	0.000927	20.903698
17.003801	-2.995000	3.871800	-11.595000	21.121444	0.000924	20.901477
18.005212	-3.007900	3.869000	-11.636000	21.122691	0.000923	20.893242
19.008270	-2.981200	3.869600	-11.535000	21.152903	0.000924	20.879842
20.002082	-2.990300	3.868900	-11.569000	21.163107	0.000920	20.897160
21.009302	-2.990200	3.867100	-11.562000	21.169592	0.000922	20.909336
22.005049	-3.008700	3.867700	-11.636000	21.137435	0.000922	20.898507
23.006317	-2.980900	3.865800	-11.523000	21.152978	0.000922	20.901726
24.009430	-3.010800	3.864900	-11.636000	21.193991	0.000921	20.927103
25.004223	-2.975000	3.864100	-11.494000	21.179422	0.000919	20.872231
26.013532	-3.015700	3.863400	-11.650000	21.159987	0.000921	20.913953
27.011585	-2.999700	3.863200	-11.587000	21.175580	0.000920	20.905369
28.004423	-3.010700	3.861900	-11.627000	21.188702	0.000920	20.909486
29.015350	-3.005200	3.861700	-11.604000	21.180344	0.000919	20.898282
30.009782	-3.002600	3.860800	-11.590000	21.214197	0.000917	20.904171
31.008258	-2.997600	3.860600	-11.572000	21.208559	0.000918	20.886679
32.010098	-2.990200	3.859900	-11.540000	21.226945	0.000917	20.889423
33.013004	-2.996800	3.859300	-11.565000	21.219411	0.000919	20.893266
34.007838	-3.003200	3.857100	-11.583000	21.213873	0.000918	20.916173
35.008528	-2.998000	3.857300	-11.563000	21.242835	0.000917	20.908163
36.011495	-2.985900	3.857400	-11.516000	21.254135	0.000919	20.916148
37.022688	-2.985400	3.857500	-11.514000	21.244531	0.000918	20.909386
38.011268	-2.994000	3.857400	-11.547000	21.269976	0.000917	20.884108
39.012527	-2.987100	3.854600	-11.513000	21.256555	0.000916	20.884906
40.011599	-3.015900	3.855300	-11.626000	21.264887	0.000919	20.888025
41.013332	-2.995900	3.855600	-11.550000	21.299710	0.000917	20.898681
42.015399	-3.008700	3.853700	-11.593000	21.278607	0.000917	20.890371
43.013471	-3.005300	3.854300	-11.583000	21.296043	0.000915	20.886478
44.011167	-2.998400	3.855300	-11.557000	21.311334	0.000917	20.887552
45.014439	-2.989200	3.853700	-11.518000	21.315725	0.000919	20.879142
46.015186	-2.998000	3.853100	-11.550000	21.316123	0.000916	20.887601
47.017135	-3.017100	3.852700	-11.622000	21.319117	0.000917	20.872105
48.014314	-3.021400	3.850100	-11.632000	21.327648	0.000915	20.885855
49.023686	-3.021200	3.851300	-11.634000	21.328321	0.000915	20.874201
50.012011	-3.006100	3.850700	-11.575000	21.328346	0.000915	20.861899
51.016712	-2.994100	3.850700	-11.528000	21.349773	0.000913	20.873852
52.012890	-2.986500	3.850700	-11.498000	21.356133	0.000915	20.880215
53.013140	-2.981200	3.850100	-11.477000	21.365163	0.000914	20.901575
54.018550	-3.010300	3.849300	-11.585000	21.349997	0.000915	20.887826
55.016413	-2.989700	3.850400	-11.510000	21.362793	0.000915	20.882136
56.016319	-3.013300	3.850400	-11.602000	21.364963	0.000915	20.861549
57.021541	-3.024200	3.848600	-11.637000	21.364739	0.000913	20.871755
58.018808	-2.983300	3.850300	-11.486000	21.358677	0.000916	20.887501
59.016660	-3.006800	3.846900	-11.566000	21.375663	0.000914	20.876047
60.025508	-2.995100	3.848300	-11.523000	21.407316	0.000917	20.883059
61.024502	-2.997300	3.846200	-11.527000	21.386913	0.000913	20.873078
62.018897	-3.009400	3.846500	-11.575000	21.403899	0.000914	20.877270
63.022685	-3.018700	3.845300	-11.607000	21.403225	0.000915	20.853364
64.022386	-2.998400	3.844500	-11.526000	21.418265	0.000918	20.856558
65.018445	-2.990100	3.846300	-11.500000	21.437820	0.000916	20.868062
66.028009	-2.983700	3.845800	-11.474000	21.419313	0.000916	20.859503
67.023338	-2.996500	3.844900	-11.520000	21.443357	0.000914	20.856059
68.021643	-3.007700	3.845700	-11.565000	21.456451	0.000914	20.882435
69.022557	-3.005900	3.843100	-11.551000	21.452011	0.000914	20.858554
70.032873	-2.992300	3.844100	-11.501000	21.468522	0.000914	20.867488
71.023372	-2.980600	3.844000	-11.455000	21.480244	0.000915	20.859777
72.024351	-3.005100	3.842900	-11.546000	21.475306	0.000916	20.851043
73.026657	-3.026800	3.841000	-11.624000	21.487776	0.000912	20.849296
74.025100	-2.992600	3.843000	-11.500000	21.497678	0.000916	20.854462
75.025333	-3.023700	3.842600	-11.618000	21.499648	0.000914	20.882510
76.023122	-2.986800	3.842100	-11.475000	21.514288	0.000915	20.850694
77.023968	-2.989400	3.841400	-11.483000	21.528553	0.000913	20.865916
78.031550	-3.019400	3.841800	-11.598000	21.521944	0.000915	20.858828
79.023814	-2.986300	3.842200	-11.473000	21.546460	0.000913	20.851592
80.030166	-3.011200	3.842400	-11.568000	21.543068	0.000914	20.852939
81.028102	-3.021300	3.840500	-11.602000	21.535611	0.000915	20.855435
82.028734	-3.030300	3.838500	-11.630000	21.559852	0.000916	20.865466
83.031699	-3.000400	3.840200	-11.521000	21.560127	0.000916	20.871430
84.025967	-3.007800	3.839200	-11.545000	21.555114	0.000917	20.841760
85.024323	-2.993900	3.839700	-11.495000	21.557408	0.000917	20.860650
86.026268	-2.998400	3.839600	-11.511000	21.578656	0.000916	20.856308
87.036821	-3.013100	3.838200	-11.564000	21.582297	0.000918	20.831503
88.026413	-3.014900	3.838100	-11.571000	21.604492	0.000916	20.858928
89.028261	-2.995500	3.839900	-11.501000	21.596736	0.000917	20.859702
90.032660	-2.996500	3.839400	-11.503000	21.615938	0.000918	20.845727
91.027412	-2.992800	3.838100	-11.486000	21.619380	0.000920	20.833999
92.026380	-3.009000	3.838200	-11.548000	21.637285	0.000917	20.843382
93.028437	-2.991900	3.839100	-11.485000	21.627485	0.000920	20.848747
94.032321	-2.962500	3.837700	-11.367000	21.630228	0.000918	20.837268
95.027841	-2.979800	3.836500	-11.431000	21.660002	0.000919	20.863270
96.027969	-2.974600	3.837600	-11.413000	21.654566	0.000920	20.841710
97.031556	-2.995100	3.836200	-11.489000	21.679902	0.000920	20.840512
98.028471	-2.995500	3.836000	-11.490000	21.691423	0.000917	20.847300
99.033276	-3.001500	3.836400	-11.514000	21.710523	0.000921	20.817104
100.037989	-2.997300	3.836700	-11.498000	21.672795	0.000918	20.844779
101.029222	-2.998400	3.835300	-11.499000	21.704015	0.000920	20.831927
102.037848	-2.999800	3.835100	-11.504000	21.697756	0.000920	20.825189
103.035902	-3.010300	3.835100	-11.544000	21.708454	0.000919	20.843007
104.038202	-2.995100	3.836100	-11.487000	21.744585	0.000918	20.838865
105.027412	-3.009100	3.833900	-11.534000	21.755057	0.000919	20.851242
106.031611	-3.005300	3.834400	-11.522000	21.739024	0.000919	20.815756
107.030396	-2.988100	3.835600	-11.460000	21.751866	0.000919	20.837143
108.036551	-2.987900	3.835000	-11.456000	21.745058	0.000922	20.833649
109.035988	-3.018200	3.834100	-11.572000	21.764308	0.000922	20.851965
110.037886	-2.990800	3.834100	-11.467000	21.792633	0.000920	20.849021
111.039494	-2.981000	3.834100	-11.426000	21.775054	0.000923	20.851815
112.037481	-3.001900	3.832800	-11.503000	21.796149	0.000922	20.827884
113.033082	-2.987500	3.834100	-11.454000	21.765405	0.000925	20.819873
114.037907	-2.975500	3.834500	-11.408000	21.776949	0.000921	20.839014
115.033851	-2.993300	3.831800	-11.468000	21.771065	0.000923	20.843555
116.033354	-2.992200	3.832200	-11.464000	21.796273	0.000924	20.819948
117.031990	-3.008900	3.830700	-11.525000	21.805174	0.000923	20.819848
118.035038	-2.986100	3.832400	-11.442000	21.806371	0.000924	20.849020
119.036231	-2.986600	3.831400	-11.442000	21.814973	0.000924	20.835819
120.034503	-3.004400	3.831500	-11.510000	21.811158	0.000924	20.824889
121.033643	-3.008400	3.830500	-11.522000	21.841726	0.000924	20.819449
122.041404	-3.006200	3.830300	-11.512000	21.806645	0.000926	20.828432
123.033785	-3.025700	3.829200	-11.585000	21.826991	0.000923	20.836942
124.036495	-3.012100	3.829800	-11.534000	21.861946	0.000924	20.842532
125.032753	-3.015400	3.828900	-11.545000	21.854591	0.000925	20.829480
126.040244	-2.994500	3.829700	-11.466000	21.867232	0.000925	20.826960
127.035076	-3.021000	3.828000	-11.564000	21.897923	0.000926	20.828282
128.032640	-2.993100	3.829000	-11.458000	21.904256	0.000928	20.823241
129.035042	-2.985800	3.829100	-11.432000	21.913605	0.000925	20.835918
130.039083	-3.013400	3.827500	-11.532000	21.903583	0.000928	20.828257
131.032411	-3.021500	3.827700	-11.565000	21.928613	0.000927	20.837191
132.035611	-3.004600	3.827400	-11.498000	21.952248	0.000928	20.826236
133.035786	-3.001100	3.828200	-11.488000	21.920411	0.000927	20.821869
134.032755	-2.969600	3.829400	-11.371000	21.914951	0.000928	20.845800
135.034295	-2.985900	3.828700	-11.431000	21.942151	0.000927	20.829879
136.034486	-2.996400	3.827800	-11.469000	21.928638	0.000932	20.822043
137.035952	-3.015100	3.825700	-11.534000	21.948732	0.000930	20.813234
138.036219	-3.025400	3.826200	-11.574000	21.963566	0.000930	20.825237
139.036289	-3.000000	3.828100	-11.484000	21.956785	0.000930	20.805648
140.037362	-3.000700	3.825200	-11.477000	21.968427	0.000930	20.813983
141.039869	-3.012000	3.824500	-11.518000	21.966956	0.000930	20.830528
142.041614	-2.974900	3.827800	-11.385000	21.967305	0.000930	20.803851
143.045319	-2.985800	3.826200	-11.424000	21.986053	0.000932	20.821669
144.041420	-2.978200	3.826200	-11.394000	21.994454	0.000931	20.823915
145.041635	-2.995200	3.825600	-11.458000	22.023721	0.000933	20.833772
146.058299	-2.975200	3.824800	-11.379000	22.022100	0.000931	20.821244
147.038718	-3.000900	3.825100	-11.477000	22.032122	0.000931	20.811836
148.041949	-3.005300	3.824000	-11.491000	22.048300	0.000933	20.807170
149.042633	-2.998600	3.825100	-11.469000	22.051267	0.000934	20.815829
150.044579	-2.994400	3.823700	-11.448000	22.079236	0.000932	20.822018
151.042636	-3.023300	3.822600	-11.556000	22.061413	0.000934	20.809391
152.043666	-3.012500	3.822600	-11.514000	22.069439	0.000936	20.813633
153.044276	-3.007700	3.823500	-11.499000	22.097632	0.000937	20.815305
154.042459	-3.035000	3.822800	-11.600000	22.096361	0.000935	20.819248
155.044905	-3.010500	3.822700	-11.507000	22.092647	0.000938	20.806521
156.042268	-3.014900	3.822000	-11.522000	22.106855	0.000935	20.815530
157.044135	-2.974000	3.822000	-11.365000	22.105061	0.000937	20.804250
158.044092	-2.984500	3.821100	-11.403000	22.116676	0.000938	20.815879
159.044448	-2.995400	3.821100	-11.445000	22.091550	0.000937	20.812535
160.044617	-2.995400	3.820000	-11.442000	22.097383	0.000937	20.818849
161.046434	-2.977800	3.820200	-11.375000	22.099477	0.000940	20.815255
162.048075	-3.018800	3.820900	-11.532000	22.126797	0.000937	20.800407
163.049735	-2.999500	3.820900	-11.460000	22.127519	0.000939	20.800656
164.050215	-3.023800	3.820100	-11.549000	22.133801	0.000940	20.769961
165.049582	-2.987600	3.821700	-11.417000	22.146713	0.000939	20.818449
166.050566	-3.000900	3.819000	-11.460000	22.148782	0.000940	20.789227
167.050045	-2.992400	3.819200	-11.427000	22.155711	0.000941	20.838363
168.049565	-2.996700	3.820300	-11.446000	22.138786	0.000944	20.809091
169.050329	-3.008600	3.819100	-11.489000	22.150776	0.000938	20.817775
170.052268	-3.001800	3.819800	-11.465000	22.158179	0.000941	20.807170
171.055930	-2.978200	3.820300	-11.376000	22.181036	0.000942	20.809665
172.051679	-2.992900	3.818300	-11.426000	22.178393	0.000942	20.791847
173.053542	-2.998800	3.818200	-11.448000	22.190881	0.000942	20.792970
174.053638	-3.004300	3.819000	-11.472000	22.193049	0.000943	20.780442
175.055045	-2.988800	3.818100	-11.411000	22.204515	0.000945	20.807095
176.052417	-2.996500	3.817800	-11.438000	22.201698	0.000945	20.802378
177.051530	-3.003100	3.817200	-11.462000	22.209824	0.000945	20.800556
178.054825	-2.993300	3.816700	-11.423000	22.231533	0.000944	20.810438
179.055770	-3.014600	3.817400	-11.507000	22.230736	0.000944	20.799683
180.057006	-2.991500	3.816900	-11.417000	22.233078	0.000945	20.799658
181.052374	-2.999700	3.817700	-11.450000	22.242450	0.000945	20.795291
182.060602	-2.996500	3.816400	-11.435000	22.265380	0.000946	20.799758
183.054201	-3.000300	3.815100	-11.445000	22.257753	0.000946	20.783112
184.054936	-2.990300	3.814700	-11.406000	22.268919	0.000947	20.799508
185.059209	-3.002500	3.814400	-11.452000	22.248805	0.000947	20.805447
186.059863	-2.983400	3.815900	-11.384000	22.263610	0.000951	20.797512
187.056356	-2.999300	3.815400	-11.443000	22.281156	0.000949	20.806546
188.056621	-3.018900	3.815200	-11.517000	22.286315	0.000947	20.797012
189.061055	-3.003100	3.815600	-11.458000	22.305905	0.000949	20.805248
190.065163	-3.015700	3.814700	-11.503000	22.281679	0.000950	20.783836
191.063056	-2.987100	3.813900	-11.391000	22.298004	0.000951	20.785957
192.069007	-3.005000	3.812600	-11.456000	22.294589	0.000951	20.793918
193.062255	-2.994500	3.812600	-11.416000	22.284371	0.000952	20.777048
194.064715	-3.009200	3.812900	-11.473000	22.283175	0.000953	20.777746
195.063208	-3.001800	3.813100	-11.445000	22.287137	0.000953	20.791672
196.062529	-3.015100	3.812100	-11.493000	22.310465	0.000952	20.794167
197.064639	-3.017900	3.812000	-11.503000	22.321655	0.000952	20.793993
198.064834	-3.009900	3.812600	-11.475000	22.316696	0.000955	20.787130
199.062861	-2.998400	3.812100	-11.429000	22.310789	0.000954	20.787379
200.065513	-2.997200	3.813300	-11.428000	22.351437	0.000955	20.790624
201.066855	-3.002900	3.811200	-11.444000	22.336260	0.000954	20.783012
202.066039	-3.016000	3.812600	-11.498000	22.330552	0.000955	20.791048
203.066595	-2.980700	3.812500	-11.363000	22.365618	0.000958	20.775426
204.065958	-3.009400	3.810900	-11.467000	22.364845	0.000956	20.783661
205.067577	-3.002200	3.809800	-11.437000	22.415534	0.000956	20.778470
206.064905	-2.987200	3.809900	-11.380000	22.368683	0.000960	20.766167
207.067149	-3.001700	3.809400	-11.433000	22.402799	0.000959	20.762873
208.066634	-3.010500	3.809100	-11.467000	22.377355	0.000960	20.753514
209.079135	-2.997900	3.811400	-11.424000	22.381642	0.000959	20.797162
210.072043	-2.996300	3.810000	-11.415000	22.401304	0.000959	20.759953
211.066952	-3.018800	3.810800	-11.503000	22.400806	0.000959	20.801180
212.066975	-3.011200	3.809700	-11.471000	22.415957	0.000962	20.789800
213.070523	-2.996500	3.810300	-11.416000	22.437189	0.000961	20.784510
214.067879	-3.003400	3.809600	-11.440000	22.438311	0.000960	20.763347
215.070070	-3.000400	3.808200	-11.424000	22.429464	0.000961	20.775825
216.070222	-2.997500	3.808300	-11.415000	22.453611	0.000963	20.776299
217.064610	-3.002500	3.809100	-11.434000	22.468712	0.000963	20.774827
218.068005	-3.004100	3.806800	-11.435000	22.509903	0.000962	20.786207
219.071329	-3.004800	3.805700	-11.434000	22.483415	0.000964	20.772481
220.066315	-3.008100	3.806300	-11.449000	22.487825	0.000965	20.773579
221.070935	-2.998500	3.807400	-11.414000	22.500808	0.000965	20.760028
222.071394	-3.008200	3.805500	-11.447000	22.502303	0.000967	20.772431
223.070318	-2.999400	3.807500	-11.420000	22.521415	0.000966	20.766441
224.068508	-2.988000	3.806300	-11.371000	22.542271	0.000966	20.762673
225.071202	-2.994200	3.806300	-11.396000	22.541922	0.000968	20.756160
226.068464	-3.003200	3.804600	-11.425000	22.513192	0.000969	20.779543
227.071395	-3.000800	3.806000	-11.419000	22.532080	0.000970	20.774278
228.073205	-3.011900	3.804300	-11.456000	22.535693	0.000969	20.763197
229.069466	-2.999200	3.804900	-11.410000	22.541922	0.000970	20.764220
230.072856	-2.996100	3.804900	-11.398000	22.551814	0.000969	20.776024
231.073057	-2.983500	3.805100	-11.351000	22.541025	0.000969	20.775176
232.075162	-2.995700	3.805400	-11.398000	22.545386	0.000972	20.757257
233.077919	-2.981900	3.805100	-11.346000	22.550419	0.000972	20.762773
234.074436	-2.995200	3.804300	-11.392000	22.554979	0.000972	20.780616
235.072999	-2.991800	3.803500	-11.377000	22.601523	0.000969	20.753738
236.076015	-3.002100	3.803100	-11.417000	22.573915	0.000972	20.748847
237.079214	-2.979200	3.804000	-11.332000	22.551814	0.000972	20.776024
238.074866	-2.985400	3.804100	-11.355000	22.569530	0.000972	20.767689
239.080567	-2.973500	3.803700	-11.309000	22.574289	0.000974	20.763920
240.076415	-2.990600	3.805100	-11.378000	22.568309	0.000974	20.752715
241.077303	-2.989500	3.802300	-11.366000	22.604263	0.000975	20.778295
242.078056	-2.992400	3.802600	-11.377000	22.591431	0.000975	20.759752
243.078148	-3.009400	3.802000	-11.439000	22.598183	0.000974	20.747548
244.079748	-3.005500	3.801000	-11.423000	22.619113	0.000977	20.772305
245.079982	-2.992900	3.802400	-11.378000	22.617020	0.000976	20.764993
246.080658	-2.994000	3.800900	-11.378000	22.639792	0.000979	20.744179
247.079510	-2.999100	3.800400	-11.397000	22.652051	0.000980	20.762622
248.080560	-2.986800	3.801500	-11.352000	22.660472	0.000980	20.769160
249.081611	-3.007400	3.799500	-11.426000	22.703648	0.000980	20.763570
250.082918	-2.998800	3.800100	-11.395000	22.697196	0.000977	20.754736
251.082960	-3.013500	3.798800	-11.446000	22.702676	0.000980	20.761174
252.083311	-3.007600	3.799300	-11.427000	22.717450	0.000981	20.761274
253.086345	-3.004600	3.799800	-11.415000	22.744008	0.000980	20.757530
254.086180	-2.996900	3.798600	-11.382000	22.722707	0.000983	20.750418
255.081529	-3.003600	3.799900	-11.411000	22.721262	0.000983	20.761299
256.082554	-3.033900	3.798500	-11.523000	22.722258	0.000983	20.741907
257.085845	-3.018000	3.798200	-11.462000	22.724276	0.000983	20.741558
258.084435	-2.971100	3.799200	-11.288000	22.767052	0.000983	20.753587
259.085719	-2.981500	3.798900	-11.325000	22.738751	0.000983	20.737565
260.087142	-3.002000	3.797500	-11.398000	22.752826	0.000985	20.757355
261.088625	-2.997200	3.797900	-11.381000	22.735487	0.000985	20.765591
262.085573	-2.997800	3.796400	-11.379000	22.747520	0.000986	20.739711
263.089293	-3.001400	3.796800	-11.395000	22.747570	0.000985	20.754934
264.086228	-2.993900	3.796600	-11.365000	22.757510	0.000985	20.743554
265.086412	-2.986200	3.797200	-11.337000	22.760873	0.000990	20.740285
266.085831	-2.998500	3.796500	-11.382000	22.777514	0.000989	20.773077
267.088016	-2.983500	3.796700	-11.325000	22.762866	0.000987	20.738962
268.087492	-2.989500	3.796600	-11.348000	22.784091	0.000987	20.761647
269.089783	-2.988400	3.796800	-11.345000	22.812540	0.000988	20.749369
270.090319	-3.004300	3.795300	-11.401000	22.778760	0.000989	20.760100
271.086178	-3.014500	3.795100	-11.438000	22.767773	0.000989	20.748620
272.092582	-2.994900	3.795900	-11.367000	22.765208	0.000989	20.742730
