LabVIEW Measurement	
Writer_Version	2
Reader_Version	2
Separator	Tab
Decimal_Separator	.
Multi_Headings	No
X_Columns	One
Time_Pref	Absolute
Operator	admin
Description	Clolumns are: time, Current, Voltage, Power, Battery Temp, and Chamber Temp
Date	2024/08/16
Time	13:06:06.104549407958984375
***End_of_Header***	
	
Channels	6						
Samples	1	1	1	1	1	1	
Date	2024/09/18	2024/09/18	2024/09/18	2024/09/18	2024/09/18	2024/09/18	
Time	10:18:27.86862945556640625	10:18:27.8771991729736328125	10:18:27.8872385025024414062	10:18:27.8492336273193359375	10:18:27.8492336273193359375	10:18:27.8492336273193359375	
X_Dimension	Time	Time	Time	Time	Time	Time	
X0	0.0000000000000000E+0	0.0000000000000000E+0	0.0000000000000000E+0	0.0000000000000000E+0	0.0000000000000000E+0	0.0000000000000000E+0	
Delta_X	1.000000	1.000000	1.000000	1.000000	1.000000	1.000000	
***End_of_Header***							
X_Value	Untitled	Untitled 1	Untitled 2	Untitled 3	Untitled 4	Untitled 5	Comment
0.000000	0.028928	4.091500	0.118430	20.985160	0.000978	20.755210
0.998734	-3.020200	3.905700	-11.795000	20.978425	0.000977	20.754163
2.000796	-2.996300	3.899500	-11.682000	20.960434	0.000977	20.766042
3.004076	-3.000500	3.892200	-11.677000	20.952252	0.000976	20.774454
4.000114	-2.996900	3.889700	-11.656000	20.965853	0.000972	20.758185
4.999372	-2.997400	3.885300	-11.645000	20.967545	0.000974	20.766516
6.002671	-3.012300	3.882600	-11.694000	20.966678	0.000971	20.786986
6.998135	-2.995800	3.880200	-11.624000	20.999815	0.000970	20.761333
7.998418	-2.999500	3.878100	-11.632000	20.991281	0.000971	20.754694
9.002249	-3.011200	3.875000	-11.667000	21.016734	0.000970	20.758340
9.997899	-3.021400	3.873000	-11.701000	20.982976	0.000971	20.768199
10.999475	-2.985400	3.873100	-11.562000	21.009377	0.000969	20.791760
12.001179	-2.984000	3.871000	-11.550000	21.001522	0.000968	20.770153
12.999291	-3.004400	3.868700	-11.622000	20.981913	0.000966	20.771877
14.000380	-3.000700	3.867000	-11.602000	21.011534	0.000966	20.759778
14.999290	-3.001300	3.865500	-11.601000	21.023385	0.000965	20.786805
15.998548	-3.010200	3.865400	-11.634000	21.024962	0.000964	20.770838
17.003193	-3.022000	3.865000	-11.679000	21.024520	0.000966	20.746688
17.999878	-2.998700	3.862100	-11.580000	21.040410	0.000966	20.764003
18.999199	-3.002500	3.862600	-11.596000	21.062624	0.000963	20.763937
20.003850	-2.994700	3.861700	-11.564000	21.048557	0.000964	20.777369
21.001308	-3.009700	3.859400	-11.614000	21.060237	0.000964	20.772455
22.001993	-2.992700	3.859600	-11.549000	21.065876	0.000963	20.802752
23.004706	-3.001900	3.858000	-11.580000	21.064904	0.000961	20.789925
24.002262	-2.999000	3.856900	-11.566000	21.064518	0.000963	20.788592
25.004467	-3.004100	3.855500	-11.581000	21.079115	0.000960	20.773794
26.000044	-3.002300	3.856900	-11.578000	21.084126	0.000963	20.780703
27.001829	-2.998100	3.855200	-11.557000	21.083733	0.000962	20.784577
28.008087	-2.990800	3.856300	-11.532000	21.111585	0.000961	20.777350
29.001973	-2.986000	3.854900	-11.510000	21.091578	0.000960	20.789579
30.001034	-3.018800	3.851400	-11.625000	21.119251	0.000962	20.785966
31.000097	-2.987000	3.852600	-11.506000	21.131060	0.000961	20.790666
32.001900	-3.024800	3.851100	-11.648000	21.146555	0.000959	20.792889
33.000827	-3.005200	3.852300	-11.576000	21.128191	0.000960	20.797279
34.004652	-2.990000	3.851400	-11.514000	21.159312	0.000960	20.772933
35.002658	-2.988100	3.851100	-11.506000	21.180389	0.000959	20.769835
36.003747	-2.988100	3.850800	-11.506000	21.161731	0.000958	20.789103
37.006131	-2.978200	3.851500	-11.470000	21.165457	0.000959	20.779554
38.002944	-3.002100	3.848400	-11.551000	21.195350	0.000959	20.785750
39.006135	-3.000100	3.848800	-11.546000	21.182324	0.000959	20.784099
40.005916	-3.031000	3.845700	-11.654000	21.191509	0.000959	20.798029
41.009750	-2.993000	3.848100	-11.515000	21.219973	0.000960	20.803269
42.008879	-2.998500	3.846800	-11.533000	21.230605	0.000958	20.782610
43.008235	-2.974100	3.847400	-11.442000	21.224549	0.000958	20.808795
44.006886	-3.001800	3.846100	-11.544000	21.215518	0.000960	20.786011
45.006536	-3.008800	3.844600	-11.567000	21.218321	0.000960	20.783598
46.005403	-3.018700	3.844000	-11.602000	21.246310	0.000958	20.787416
47.005317	-2.986000	3.845900	-11.482000	21.257383	0.000961	20.771467
48.009938	-2.990300	3.845700	-11.498000	21.270188	0.000959	20.804665
49.008692	-2.990700	3.843800	-11.495000	21.267923	0.000958	20.791969
50.008921	-2.992200	3.843000	-11.497000	21.275597	0.000959	20.800120
51.008390	-3.028600	3.841600	-11.633000	21.298134	0.000957	20.793743
52.008459	-3.003800	3.844000	-11.546000	21.296818	0.000958	20.805702
53.012516	-3.004500	3.842400	-11.544000	21.292682	0.000961	20.804884
54.012301	-2.999900	3.841200	-11.523000	21.319314	0.000960	20.798811
55.010567	-2.992000	3.842800	-11.497000	21.318521	0.000959	20.798966
56.009658	-2.987800	3.841800	-11.478000	21.334267	0.000959	20.813770
57.010419	-2.983500	3.842600	-11.463000	21.330099	0.000960	20.777833
58.008840	-2.989900	3.840600	-11.482000	21.350560	0.000959	20.789768
59.017255	-2.979200	3.839000	-11.436000	21.355576	0.000957	20.799529
60.013072	-2.979300	3.840100	-11.439000	21.358445	0.000957	20.798605
61.013860	-3.011800	3.838600	-11.560000	21.385237	0.000956	20.820669
62.009552	-2.988000	3.838700	-11.469000	21.401178	0.000956	20.813385
63.013175	-3.018500	3.838300	-11.584000	21.395435	0.000958	20.803845
64.014984	-2.998700	3.838000	-11.508000	21.397713	0.000958	20.798065
65.013963	-2.994900	3.837400	-11.490000	21.419660	0.000957	20.810540
66.012488	-2.987500	3.836900	-11.461000	21.403327	0.000959	20.822173
67.010375	-2.995700	3.836500	-11.493000	21.416490	0.000959	20.817800
68.012406	-3.004700	3.836100	-11.524000	21.416473	0.000957	20.820153
69.007957	-3.002100	3.836500	-11.516000	21.435029	0.000958	20.826391
70.013078	-3.024400	3.835400	-11.599000	21.443738	0.000958	20.799544
71.012370	-3.015500	3.836300	-11.567000	21.435429	0.000960	20.804981
72.012174	-3.005200	3.835500	-11.526000	21.445740	0.000957	20.827624
73.016138	-2.986500	3.835900	-11.455000	21.472768	0.000959	20.802512
74.013968	-3.011600	3.834800	-11.547000	21.481028	0.000959	20.833535
75.015054	-2.996700	3.833900	-11.488000	21.470750	0.000959	20.828467
76.014890	-3.006800	3.834700	-11.529000	21.498455	0.000961	20.820153
77.013886	-2.979600	3.835800	-11.428000	21.505669	0.000960	20.818837
78.010651	-3.011800	3.832400	-11.540000	21.500015	0.000958	20.831671
79.017148	-3.011200	3.832300	-11.538000	21.502418	0.000958	20.819377
80.017580	-3.000800	3.832700	-11.500000	21.524770	0.000959	20.833208
81.019009	-3.029300	3.833700	-11.612000	21.520081	0.000961	20.845585
82.013203	-3.012900	3.832400	-11.546000	21.538814	0.000960	20.813597
83.014218	-3.024900	3.831000	-11.587000	21.562474	0.000960	20.824944
84.012955	-3.005500	3.831000	-11.514000	21.530727	0.000962	20.827315
85.015759	-3.011000	3.831700	-11.535000	21.550196	0.000958	20.801278
86.016202	-2.992900	3.830600	-11.464000	21.539951	0.000961	20.816630
87.015667	-2.990400	3.832500	-11.459000	21.559452	0.000962	20.821445
88.026339	-2.989100	3.832100	-11.453000	21.568798	0.000960	20.832694
89.013745	-2.987900	3.830800	-11.446000	21.565808	0.000961	20.818323
90.019295	-3.009300	3.830500	-11.524000	21.569125	0.000963	20.831599
91.017550	-2.998100	3.830700	-11.484000	21.604402	0.000961	20.822329
92.022880	-2.978900	3.831100	-11.410000	21.601232	0.000962	20.799244
93.017245	-3.000900	3.830800	-11.494000	21.606272	0.000962	20.813296
94.019063	-2.993900	3.828900	-11.461000	21.606788	0.000963	20.815708
95.020772	-2.987500	3.829300	-11.438000	21.617735	0.000963	20.812913
96.019325	-2.981800	3.831100	-11.421000	21.633886	0.000963	20.817222
97.021407	-2.991600	3.830000	-11.456000	21.623747	0.000962	20.811343
98.021470	-3.005000	3.827900	-11.501000	21.626322	0.000962	20.833359
99.020633	-3.000500	3.828700	-11.486000	21.654660	0.000962	20.808139
100.018875	-2.996400	3.828700	-11.472000	21.652536	0.000965	20.797005
101.018095	-2.999800	3.828600	-11.484000	21.657274	0.000965	20.795583
102.022611	-2.992200	3.827400	-11.451000	21.681560	0.000965	20.808033
103.021586	-3.007300	3.826300	-11.506000	21.699810	0.000964	20.815391
104.019111	-3.000600	3.826400	-11.479000	21.716939	0.000966	20.792706
105.024483	-2.974100	3.827600	-11.382000	21.702824	0.000964	20.804658
106.021759	-3.001400	3.827300	-11.486000	21.721368	0.000965	20.814207
107.021190	-2.987400	3.825900	-11.428000	21.713778	0.000965	20.798550
108.022202	-2.995300	3.825600	-11.458000	21.718965	0.000965	20.791888
109.029710	-2.969700	3.826500	-11.363000	21.730279	0.000967	20.807004
110.023403	-2.990200	3.826200	-11.439000	21.745685	0.000965	20.804879
111.020697	-3.015000	3.823000	-11.524000	21.730507	0.000966	20.811974
112.026925	-3.008300	3.823600	-11.501000	21.752529	0.000967	20.797978
113.023582	-3.002600	3.823400	-11.479000	21.743716	0.000965	20.803857
114.023919	-2.978400	3.825000	-11.391000	21.755290	0.000965	20.786043
115.022976	-3.004400	3.823000	-11.485000	21.748927	0.000969	20.801960
116.023299	-3.009000	3.823100	-11.501000	21.758206	0.000969	20.788487
117.025135	-2.993900	3.823400	-11.445000	21.763671	0.000970	20.798698
118.026789	-2.992700	3.822600	-11.439000	21.800240	0.000968	20.794521
119.025035	-3.009500	3.822300	-11.501000	21.799472	0.000968	20.802761
120.024198	-2.994500	3.823400	-11.449000	21.811470	0.000968	20.805761
121.030966	-3.014500	3.822300	-11.520000	21.796735	0.000971	20.768727
122.024935	-3.012500	3.821800	-11.511000	21.815154	0.000969	20.811819
123.030985	-3.026700	3.822600	-11.568000	21.802893	0.000970	20.786271
124.032726	-3.006400	3.821500	-11.487000	21.806961	0.000969	20.801248
125.026288	-3.000900	3.820700	-11.464000	21.800223	0.000969	20.778857
126.039390	-2.987700	3.821800	-11.415000	21.803367	0.000970	20.779633
127.034604	-2.983000	3.820400	-11.394000	21.805842	0.000973	20.786377
128.048724	-2.991800	3.820900	-11.431000	21.821026	0.000969	20.789721
129.032538	-2.993400	3.820700	-11.435000	21.816990	0.000972	20.793268
130.030031	-2.988500	3.820900	-11.417000	21.867654	0.000971	20.770958
131.026798	-2.986600	3.821000	-11.411000	21.846141	0.000972	20.800160
132.028844	-2.991200	3.820500	-11.427000	21.864093	0.000970	20.769765
133.031989	-2.988700	3.820300	-11.417000	21.870047	0.000971	20.785682
134.030346	-2.978900	3.819400	-11.377000	21.885385	0.000973	20.786336
135.028519	-3.014600	3.818500	-11.509000	21.913513	0.000973	20.811171
136.033635	-3.024200	3.818600	-11.547000	21.877716	0.000975	20.769175
137.030945	-3.013700	3.817500	-11.504000	21.894678	0.000973	20.784732
138.028136	-2.987500	3.818300	-11.405000	21.891812	0.000973	20.785656
139.027405	-2.989400	3.817900	-11.411000	21.894784	0.000973	20.774406
140.027434	-2.992500	3.816600	-11.420000	21.899202	0.000975	20.773613
141.029143	-3.012300	3.816700	-11.496000	21.904911	0.000975	20.783595
142.028067	-3.008600	3.816800	-11.482000	21.924978	0.000976	20.790405
143.033249	-3.002000	3.817100	-11.458000	21.914996	0.000976	20.770456
144.029929	-3.007300	3.816900	-11.478000	21.922877	0.000978	20.765068
145.030026	-3.026700	3.814900	-11.546000	21.928488	0.000978	20.789177
146.032760	-3.007200	3.816400	-11.476000	21.928700	0.000979	20.773267
147.030967	-2.999300	3.815800	-11.442000	21.951387	0.000976	20.760415
148.030555	-3.005000	3.816000	-11.466000	21.953363	0.000977	20.765238
149.034503	-2.971600	3.817500	-11.343000	21.970268	0.000979	20.760349
150.033965	-3.018000	3.815900	-11.515000	21.980353	0.000979	20.774238
151.033123	-2.997900	3.814800	-11.436000	21.994710	0.000978	20.772489
152.034060	-3.004900	3.814300	-11.461000	22.010447	0.000979	20.768801
153.033434	-2.988900	3.815000	-11.401000	22.038750	0.000982	20.764419
154.035085	-3.017400	3.813800	-11.506000	22.050771	0.000980	20.760331
155.033695	-3.011900	3.814600	-11.489000	22.050876	0.000981	20.758066
156.033315	-3.000000	3.814400	-11.441000	22.068776	0.000981	20.765554
157.046552	-2.978000	3.814300	-11.359000	22.049659	0.000983	20.762537
158.034667	-2.991800	3.813400	-11.408000	22.066138	0.000982	20.755801
159.035791	-2.993300	3.813100	-11.412000	22.070939	0.000983	20.751123
160.034618	-2.994000	3.814000	-11.418000	22.068048	0.000984	20.748703
161.034863	-2.988100	3.812400	-11.389000	22.085131	0.000983	20.781453
162.036001	-2.985900	3.811400	-11.379000	22.072922	0.000984	20.754057
163.035493	-2.976600	3.811900	-11.346000	22.077781	0.000984	20.760344
164.037411	-2.993000	3.812900	-11.411000	22.091605	0.000986	20.751424
165.036882	-2.989400	3.813200	-11.398000	22.102351	0.000986	20.758389
166.036507	-3.019600	3.810100	-11.503000	22.123092	0.000986	20.754498
167.037931	-3.000800	3.811900	-11.437000	22.132842	0.000987	20.748137
168.038667	-3.010600	3.810400	-11.471000	22.132947	0.000987	20.756778
169.038331	-2.997400	3.810500	-11.419000	22.150805	0.000990	20.772760
170.041110	-2.993200	3.810100	-11.403000	22.155810	0.000989	20.757382
171.038797	-3.008800	3.808500	-11.458000	22.169846	0.000990	20.739192
172.040695	-3.005300	3.810300	-11.450000	22.175562	0.000988	20.734957
173.037951	-3.013000	3.809600	-11.476000	22.195256	0.000990	20.748037
174.039105	-3.004300	3.808300	-11.440000	22.202212	0.000990	20.750261
175.039645	-2.992800	3.810400	-11.403000	22.202865	0.000992	20.770355
176.042064	-2.983500	3.809400	-11.364000	22.207331	0.000991	20.752067
177.043994	-2.997900	3.807200	-11.413000	22.230438	0.000992	20.757184
178.040375	-2.967800	3.809700	-11.305000	22.230747	0.000992	20.748011
179.040489	-3.020400	3.806400	-11.496000	22.229498	0.000993	20.748657
180.039411	-2.981200	3.808600	-11.353000	22.243632	0.000992	20.749058
181.040165	-3.002400	3.807200	-11.429000	22.247403	0.000993	20.744299
182.042284	-2.984200	3.807200	-11.360000	22.268941	0.000995	20.748321
183.042261	-2.985700	3.807400	-11.366000	22.257103	0.000994	20.749269
184.040980	-3.010300	3.806600	-11.458000	22.276150	0.000996	20.747478
185.044559	-2.996100	3.807800	-11.408000	22.277848	0.000995	20.747756
186.044451	-2.996800	3.807400	-11.409000	22.259910	0.000996	20.757296
187.043491	-3.025000	3.805100	-11.509000	22.270336	0.000996	20.720793
188.045860	-2.982000	3.808100	-11.355000	22.274615	0.000996	20.750208
189.046473	-2.999600	3.806700	-11.418000	22.259093	0.000998	20.709061
190.044982	-3.000400	3.804400	-11.413000	22.290176	0.000997	20.760100
191.047139	-3.012900	3.804600	-11.462000	22.298650	0.000997	20.734920
192.046624	-3.028600	3.804900	-11.522000	22.321632	0.000999	20.749872
193.046733	-3.014000	3.804300	-11.466000	22.335846	0.001000	20.761260
194.046819	-3.005600	3.803000	-11.430000	22.332237	0.001001	20.736783
195.049252	-3.001200	3.803400	-11.413000	22.342426	0.001000	20.722803
196.048268	-2.993400	3.804100	-11.386000	22.357978	0.001000	20.724152
197.046706	-3.003600	3.802400	-11.420000	22.349782	0.001001	20.729695
198.047606	-2.977900	3.805100	-11.331000	22.333633	0.001001	20.733913
199.047960	-3.002300	3.802500	-11.416000	22.339617	0.001002	20.730896
200.047211	-2.983700	3.803800	-11.348000	22.362640	0.001003	20.729768
201.051388	-3.001500	3.804300	-11.418000	22.376102	0.001003	20.740404
202.050313	-2.986200	3.803200	-11.356000	22.382584	0.001004	20.727928
203.048247	-2.999500	3.802700	-11.406000	22.409222	0.001002	20.725206
204.055293	-2.981900	3.801900	-11.336000	22.418912	0.001006	20.718314
205.051432	-3.011800	3.801100	-11.447000	22.423279	0.001006	20.736913
206.050879	-3.011900	3.799900	-11.442000	22.415981	0.001004	20.722491
207.049624	-2.997400	3.801200	-11.394000	22.442030	0.001007	20.740992
208.050782	-3.011300	3.801000	-11.444000	22.440104	0.001004	20.752340
209.051754	-3.004400	3.799900	-11.414000	22.462716	0.001008	20.713816
210.051334	-3.007000	3.800800	-11.428000	22.480332	0.001007	20.728614
211.055184	-3.006800	3.801000	-11.427000	22.485311	0.001008	20.722696
212.052046	-3.028000	3.800100	-11.505000	22.485115	0.001008	20.722025
213.052380	-2.994800	3.800100	-11.379000	22.485596	0.001009	20.727723
214.054556	-2.993900	3.799400	-11.373000	22.490976	0.001009	20.726946
215.052668	-3.004600	3.798300	-11.411000	22.483948	0.001010	20.742668
216.054069	-2.983800	3.799200	-11.334000	22.522803	0.001008	20.718517
217.055164	-2.991500	3.798600	-11.361000	22.506028	0.001011	20.722581
218.054244	-3.005400	3.798500	-11.415000	22.508567	0.001012	20.707104
219.055212	-2.981400	3.798400	-11.323000	22.534867	0.001010	20.706891
220.056574	-2.987900	3.798600	-11.349000	22.533871	0.001011	20.724861
221.054213	-2.998800	3.798100	-11.389000	22.533895	0.001012	20.724885
222.056758	-2.992600	3.797700	-11.363000	22.508003	0.001013	20.735939
223.055097	-3.018100	3.797100	-11.458000	22.506191	0.001016	20.739340
224.054135	-3.016400	3.796200	-11.449000	22.541169	0.001013	20.709883
225.056254	-2.980900	3.797100	-11.318000	22.547103	0.001015	20.727207
226.055838	-3.035200	3.795400	-11.518000	22.562709	0.001015	20.703481
227.057119	-2.981600	3.797900	-11.322000	22.559346	0.001014	20.742315
228.056767	-2.990700	3.795900	-11.352000	22.591685	0.001015	20.713537
229.057315	-3.007000	3.794100	-11.407000	22.599741	0.001016	20.740573
230.055815	-2.984200	3.795700	-11.326000	22.580959	0.001017	20.716071
231.055745	-2.991700	3.796300	-11.356000	22.587261	0.001018	20.727125
232.057246	-2.993800	3.793200	-11.354000	22.575205	0.001019	20.714575
233.061382	-2.987200	3.793900	-11.332000	22.596778	0.001016	20.718638
234.056978	-3.002100	3.793000	-11.385000	22.580739	0.001019	20.732446
235.057515	-2.987200	3.794400	-11.333000	22.567915	0.001018	20.721499
236.057463	-2.992500	3.793500	-11.351000	22.582387	0.001020	20.696163
237.057411	-2.952900	3.795200	-11.205000	22.575065	0.001020	20.691200
238.057415	-3.000700	3.791500	-11.376000	22.601331	0.001019	20.725096
239.058746	-2.984500	3.792700	-11.318000	22.617933	0.001022	20.706635
240.060130	-2.986600	3.794100	-11.329000	22.611926	0.001023	20.721482
241.060117	-3.011400	3.792100	-11.419000	22.606171	0.001020	20.718563
242.066404	-2.999200	3.791800	-11.370000	22.624340	0.001023	20.714475
243.059146	-2.997000	3.791400	-11.362000	22.647087	0.001022	20.727777
244.060169	-3.014500	3.790000	-11.424000	22.671858	0.001022	20.728880
245.059126	-3.027700	3.789400	-11.472000	22.680778	0.001024	20.729281
246.063613	-3.001700	3.792500	-11.383000	22.683390	0.001024	20.689220
247.059635	-2.996900	3.791100	-11.360000	22.690751	0.001025	20.718881
248.059866	-2.980700	3.791000	-11.299000	22.695608	0.001026	20.713314
249.062249	-2.979600	3.791800	-11.298000	22.686817	0.001026	20.703560
250.059714	-2.992700	3.790200	-11.341000	22.703606	0.001027	20.706626
251.058307	-2.995500	3.789500	-11.350000	22.713873	0.001025	20.717385
252.062575	-3.002000	3.791200	-11.381000	22.727355	0.001028	20.721881
253.062389	-2.992100	3.790600	-11.340000	22.749406	0.001028	20.714572
254.060349	-2.985600	3.789700	-11.314000	22.761468	0.001029	20.721914
255.069613	-3.022300	3.788600	-11.449000	22.760791	0.001028	20.690887
256.061932	-3.002900	3.789500	-11.378000	22.750483	0.001030	20.715651
257.059512	-3.010800	3.787500	-11.403000	22.766503	0.001029	20.698981
258.060442	-2.996400	3.788200	-11.350000	22.771008	0.001029	20.712504
259.059892	-3.020600	3.788100	-11.442000	22.800958	0.001030	20.702676
260.059062	-2.999600	3.787400	-11.358000	22.792895	0.001030	20.705979
261.060862	-3.008200	3.787200	-11.392000	22.775382	0.001032	20.703608
262.065096	-3.016000	3.786400	-11.418000	22.791304	0.001033	20.693004
263.060432	-3.003900	3.786400	-11.373000	22.815656	0.001033	20.694639
264.061434	-3.026500	3.785200	-11.455000	22.825326	0.001035	20.685360
265.066723	-2.999700	3.786000	-11.356000	22.815737	0.001034	20.705153
266.061624	-3.001300	3.785300	-11.360000	22.827423	0.001034	20.701686
267.061937	-3.016600	3.785100	-11.416000	22.820323	0.001035	20.720180
268.063107	-3.026100	3.784600	-11.451000	22.827970	0.001034	20.714563
269.061931	-3.011100	3.784800	-11.396000	22.813240	0.001036	20.687477
270.062500	-3.007700	3.785100	-11.384000	22.803121	0.001035	20.700575
271.061360	-2.991200	3.785500	-11.323000	22.805814	0.001036	20.692367
272.065713	-3.003000	3.785200	-11.365000	22.839444	0.001039	20.690020
