LabVIEW Measurement	
Writer_Version	2
Reader_Version	2
Separator	Tab
Decimal_Separator	.
Multi_Headings	No
X_Columns	One
Time_Pref	Absolute
Operator	admin
Description	Clolumns are: time, Current, Voltage, Power, Battery Temp, and Chamber Temp
Date	2024/08/16
Time	13:06:06.104549407958984375
***End_of_Header***	
	
Channels	6						
Samples	1	1	1	1	1	1	
Date	2024/09/03	2024/09/03	2024/09/03	2024/09/03	2024/09/03	2024/09/03	
Time	21:51:08.0996255874633789063	21:51:08.107776641845703125	21:51:08.1147680282592773437	21:51:08.0847082138061523438	21:51:08.0847082138061523438	21:51:08.0847082138061523438	
X_Dimension	Time	Time	Time	Time	Time	Time	
X0	0.0000000000000000E+0	0.0000000000000000E+0	0.0000000000000000E+0	0.0000000000000000E+0	0.0000000000000000E+0	0.0000000000000000E+0	
Delta_X	1.000000	1.000000	1.000000	1.000000	1.000000	1.000000	
***End_of_Header***							
X_Value	Untitled	Untitled 1	Untitled 2	Untitled 3	Untitled 4	Untitled 5	Comment
0.000000	0.024373	4.100600	0.099915	20.979277	0.000932	20.772086
1.001420	-3.003200	3.933100	-11.811000	20.978429	0.000933	20.756064
2.003572	-2.981200	3.926800	-11.707000	20.949911	0.000932	20.763578
3.002448	-2.988800	3.921200	-11.719000	20.969570	0.000932	20.773283
4.002102	-2.978600	3.917900	-11.669000	20.975384	0.000927	20.746854
5.001960	-2.985700	3.914200	-11.685000	20.970818	0.000929	20.760781
6.002507	-2.978100	3.910600	-11.645000	20.976057	0.000928	20.772184
7.004897	-3.001800	3.907800	-11.729000	20.965128	0.000929	20.775004
8.002376	-3.003500	3.906400	-11.732000	20.983493	0.000927	20.762552
9.003214	-2.988300	3.904600	-11.668000	20.965327	0.000926	20.771884
10.004332	-3.012900	3.902000	-11.756000	20.986412	0.000927	20.758359
11.007425	-3.020100	3.900800	-11.779000	20.974735	0.000925	20.780346
12.004670	-2.991700	3.899900	-11.667000	20.998338	0.000924	20.767917
13.004633	-3.005200	3.898000	-11.714000	20.982718	0.000922	20.768890
14.004847	-3.021800	3.895200	-11.770000	20.976756	0.000922	20.751072
15.006063	-3.002000	3.895400	-11.694000	20.979727	0.000922	20.778226
16.007068	-3.011900	3.892700	-11.723000	21.001459	0.000922	20.783367
17.008006	-2.996500	3.892000	-11.661000	20.976781	0.000922	20.753942
18.007964	-3.000800	3.891700	-11.678000	21.019026	0.000920	20.785290
19.007601	-3.015600	3.889000	-11.727000	21.017853	0.000918	20.758985
20.010580	-2.991100	3.890100	-11.635000	21.023318	0.000919	20.770142
21.011627	-2.997800	3.888500	-11.656000	21.043528	0.000919	20.783244
22.009457	-2.999100	3.887400	-11.658000	21.042431	0.000920	20.788785
23.010538	-3.010100	3.886200	-11.697000	21.050165	0.000918	20.774709
24.008603	-3.011100	3.886000	-11.700000	21.062291	0.000916	20.763130
25.007801	-3.025200	3.884800	-11.751000	21.057725	0.000917	20.785116
26.008885	-3.005600	3.885200	-11.676000	21.055681	0.000917	20.781649
27.008763	-3.002200	3.884600	-11.661000	21.066959	0.000917	20.803835
28.010556	-2.995300	3.884000	-11.633000	21.062293	0.000916	20.772141
29.011170	-3.000100	3.882400	-11.647000	21.087094	0.000915	20.785569
30.012762	-3.004200	3.881900	-11.661000	21.085548	0.000914	20.782125
31.014938	-3.003200	3.881700	-11.656000	21.085296	0.000915	20.788985
32.012260	-2.998700	3.881200	-11.638000	21.092834	0.000913	20.787517
33.012298	-3.006200	3.881300	-11.667000	21.101592	0.000914	20.777311
34.017663	-3.010000	3.878700	-11.674000	21.112745	0.000915	20.767604
35.012387	-2.999700	3.881200	-11.642000	21.114641	0.000914	20.788941
36.012445	-3.006500	3.877800	-11.657000	21.117562	0.000913	20.778586
37.016949	-2.967600	3.879100	-11.511000	21.130983	0.000913	20.781580
38.011462	-2.983300	3.877400	-11.566000	21.124324	0.000912	20.789618
39.013006	-2.983700	3.879700	-11.574000	21.142487	0.000912	20.794510
40.014466	-2.997800	3.875300	-11.617000	21.157957	0.000911	20.792915
41.014222	-2.982800	3.876500	-11.562000	21.149076	0.000913	20.773599
42.013134	-2.978000	3.877700	-11.547000	21.176543	0.000910	20.777368
43.018346	-3.000400	3.875600	-11.627000	21.170186	0.000911	20.773853
44.014232	-3.008900	3.874900	-11.657000	21.168315	0.000911	20.771507
45.014832	-2.987500	3.876900	-11.581000	21.191716	0.000909	20.788753
46.017854	-3.018200	3.874300	-11.692000	21.174478	0.000908	20.806122
47.014514	-2.976000	3.874500	-11.528000	21.188899	0.000908	20.778822
48.018785	-3.001700	3.874700	-11.629000	21.172959	0.000909	20.778524
49.021662	-2.986500	3.873700	-11.568000	21.187180	0.000908	20.778051
50.015710	-2.995500	3.873000	-11.601000	21.205043	0.000907	20.792601
51.016623	-3.002500	3.872800	-11.628000	21.203823	0.000909	20.797071
52.018353	-2.993400	3.871600	-11.586000	21.203149	0.000909	20.799241
53.014334	-2.997900	3.870900	-11.604000	21.213154	0.000908	20.784120
54.016341	-3.011500	3.870700	-11.656000	21.245810	0.000908	20.802090
55.018063	-2.994100	3.870800	-11.588000	21.250701	0.000908	20.787068
56.017552	-3.012600	3.870000	-11.658000	21.262701	0.000908	20.785322
57.015839	-2.991000	3.871100	-11.577000	21.266292	0.000908	20.780380
58.018834	-3.028100	3.868400	-11.712000	21.274525	0.000907	20.796677
59.016693	-3.001800	3.869300	-11.614000	21.285352	0.000905	20.796128
60.015936	-3.010000	3.868700	-11.644000	21.291540	0.000907	20.796629
61.022328	-3.006400	3.868400	-11.628000	21.276847	0.000905	20.782878
62.016818	-2.992500	3.868700	-11.577000	21.267966	0.000908	20.785373
63.016819	-2.981400	3.868900	-11.533000	21.300021	0.000907	20.788044
64.020674	-3.006200	3.866800	-11.624000	21.292065	0.000905	20.801896
65.017579	-3.000500	3.868900	-11.608000	21.328634	0.000906	20.801497
66.018704	-3.019900	3.866200	-11.674000	21.341080	0.000908	20.805888
67.020843	-3.002300	3.867600	-11.611000	21.341380	0.000906	20.807137
68.020394	-2.992700	3.867900	-11.573000	21.353702	0.000904	20.807137
69.018909	-3.011700	3.866500	-11.644000	21.362957	0.000907	20.792214
70.020743	-2.998100	3.866300	-11.590000	21.345796	0.000904	20.798753
71.018390	-2.999900	3.865400	-11.595000	21.351111	0.000906	20.790319
72.019713	-2.999800	3.865700	-11.595000	21.351460	0.000906	20.809161
73.020444	-3.018300	3.865300	-11.666000	21.369143	0.000905	20.812153
74.023022	-2.995800	3.865400	-11.579000	21.368422	0.000906	20.818545
75.020541	-3.016900	3.864800	-11.658000	21.382989	0.000906	20.815576
76.028089	-2.987800	3.866700	-11.551000	21.394040	0.000906	20.780639
77.021462	-3.014300	3.864300	-11.647000	21.409354	0.000904	20.800229
78.023382	-2.999100	3.864400	-11.589000	21.409779	0.000906	20.803972
79.026269	-3.006300	3.864600	-11.617000	21.412823	0.000905	20.810337
80.023067	-3.000400	3.864300	-11.593000	21.449139	0.000906	20.796412
81.025753	-3.009100	3.863600	-11.625000	21.444526	0.000905	20.815979
82.028580	-2.997400	3.863700	-11.580000	21.455847	0.000906	20.796013
83.026488	-3.006700	3.862100	-11.611000	21.448068	0.000905	20.811463
84.024161	-3.001100	3.861700	-11.588000	21.480193	0.000905	20.808044
85.027558	-2.991700	3.862000	-11.554000	21.459765	0.000907	20.806570
86.027226	-3.002500	3.863400	-11.598000	21.469294	0.000905	20.829381
87.023894	-2.987800	3.862300	-11.540000	21.479967	0.000908	20.816353
88.026763	-2.997100	3.860700	-11.569000	21.469244	0.000906	20.810365
89.026742	-3.006300	3.861000	-11.606000	21.495555	0.000903	20.813459
90.026428	-3.005800	3.861200	-11.605000	21.503038	0.000907	20.802928
91.027149	-3.000900	3.861100	-11.586000	21.530273	0.000906	20.831128
92.027006	-2.994100	3.861200	-11.560000	21.526332	0.000906	20.804899
93.025001	-2.980100	3.861600	-11.505000	21.521096	0.000909	20.819575
94.026085	-3.000000	3.859900	-11.578000	21.548629	0.000907	20.809193
95.026739	-2.988200	3.860900	-11.536000	21.535163	0.000906	20.819426
96.027839	-3.000500	3.860000	-11.581000	21.550823	0.000907	20.814233
97.029222	-2.981400	3.860100	-11.507000	21.569478	0.000906	20.815357
98.028062	-2.978100	3.859500	-11.493000	21.555338	0.000905	20.828708
99.027903	-2.978600	3.860000	-11.496000	21.563267	0.000908	20.794443
100.033323	-3.013100	3.858900	-11.626000	21.585040	0.000907	20.814334
101.028514	-3.002400	3.858400	-11.581000	21.565065	0.000907	20.812363
102.029143	-3.024400	3.857800	-11.666000	21.600079	0.000907	20.817529
103.029274	-3.023300	3.858500	-11.665000	21.599704	0.000908	20.835646
104.029370	-3.017100	3.857700	-11.638000	21.612820	0.000908	20.817478
105.028749	-3.024800	3.856300	-11.664000	21.634117	0.000907	20.821720
106.029949	-2.982900	3.857000	-11.503000	21.632646	0.000908	20.813610
107.030276	-2.978200	3.858700	-11.491000	21.650475	0.000910	20.850891
108.031034	-2.990500	3.857600	-11.536000	21.645813	0.000907	20.815881
109.031499	-2.980900	3.858200	-11.500000	21.676459	0.000910	20.825213
110.029356	-2.996700	3.857400	-11.558000	21.667881	0.000908	20.803827
111.030901	-3.008100	3.856300	-11.599000	21.686657	0.000909	20.818824
112.047278	-3.001100	3.856700	-11.574000	21.699898	0.000910	20.820221
113.030472	-3.017900	3.855400	-11.634000	21.706505	0.000910	20.824936
114.029391	-3.005800	3.855200	-11.587000	21.705582	0.000909	20.854357
115.031281	-2.998900	3.855500	-11.561000	21.700920	0.000910	20.852537
116.031436	-3.002500	3.855700	-11.576000	21.708274	0.000909	20.827181
117.031115	-3.004100	3.855200	-11.581000	21.725605	0.000912	20.839309
118.031856	-3.000500	3.855000	-11.566000	21.741862	0.000912	20.842777
119.035526	-2.998400	3.855300	-11.559000	21.739069	0.000911	20.837137
120.032561	-3.001400	3.854000	-11.566000	21.738320	0.000911	20.833069
121.032033	-3.019400	3.854600	-11.638000	21.748267	0.000912	20.833067
122.031692	-3.003900	3.854400	-11.577000	21.765722	0.000912	20.844846
123.030074	-2.990600	3.854000	-11.525000	21.777390	0.000912	20.840877
124.036829	-2.984400	3.855700	-11.504000	21.771531	0.000911	20.843548
125.032462	-2.988000	3.854000	-11.515000	21.770857	0.000912	20.866105
126.033300	-3.003800	3.854600	-11.577000	21.789331	0.000911	20.851880
127.033656	-2.991800	3.853700	-11.528000	21.804543	0.000911	20.841026
128.034724	-2.993400	3.852900	-11.533000	21.795740	0.000912	20.833639
129.039082	-3.015000	3.852000	-11.612000	21.808405	0.000914	20.833039
130.033019	-3.020300	3.851700	-11.631000	21.792546	0.000912	20.845615
131.033762	-3.027100	3.851500	-11.658000	21.814887	0.000911	20.845689
132.032862	-3.001500	3.851200	-11.558000	21.807756	0.000913	20.868897
133.032186	-2.996800	3.850900	-11.540000	21.860139	0.000915	20.834085
134.033015	-2.990000	3.852400	-11.518000	21.844905	0.000912	20.863880
135.032503	-3.021400	3.850900	-11.634000	21.836827	0.000913	20.858640
136.032147	-3.020400	3.850400	-11.628000	21.867545	0.000915	20.862833
137.033344	-3.015200	3.851100	-11.610000	21.858044	0.000914	20.864702
138.033721	-3.018500	3.850900	-11.622000	21.871384	0.000916	20.869046
139.032823	-3.000000	3.851000	-11.551000	21.885494	0.000916	20.833859
140.035625	-2.997800	3.850300	-11.541000	21.881481	0.000914	20.865402
141.033095	-2.989900	3.852200	-11.516000	21.883823	0.000916	20.864901
142.033630	-3.017100	3.849000	-11.612000	21.891054	0.000916	20.859338
143.035203	-3.005700	3.849100	-11.569000	21.893920	0.000916	20.888282
144.046700	-3.017000	3.849300	-11.612000	21.912768	0.000917	20.868270
145.035714	-3.010700	3.848400	-11.586000	21.928849	0.000917	20.854495
146.037817	-3.015900	3.849000	-11.607000	21.927405	0.000918	20.863481
147.036686	-3.010400	3.848900	-11.585000	21.927779	0.000917	20.877605
148.035769	-3.010400	3.849400	-11.586000	21.935058	0.000919	20.866400
149.040313	-2.989000	3.850500	-11.507000	21.952111	0.000917	20.870193
150.037643	-2.997800	3.849300	-11.537000	21.972679	0.000918	20.868971
151.036886	-2.980400	3.849800	-11.473000	21.961785	0.000918	20.872764
152.039876	-3.035300	3.847800	-11.678000	21.971084	0.000917	20.865004
153.040266	-2.991000	3.849100	-11.510000	21.987837	0.000917	20.868497
154.040339	-3.010500	3.846900	-11.580000	22.004518	0.000921	20.870497
155.040926	-3.006400	3.846600	-11.564000	21.982030	0.000918	20.876909
156.041120	-2.996800	3.847700	-11.531000	22.013219	0.000918	20.855501
157.041135	-3.014800	3.846800	-11.596000	22.001653	0.000920	20.884223
158.046204	-2.989900	3.845400	-11.496000	22.013895	0.000918	20.862341
159.043390	-2.991400	3.847400	-11.508000	22.008786	0.000921	20.876666
160.043573	-2.999200	3.846200	-11.534000	22.029329	0.000920	20.879212
161.045976	-2.988300	3.846800	-11.494000	22.004401	0.000920	20.877966
162.045310	-3.000000	3.846600	-11.538000	22.023821	0.000921	20.874647
163.049030	-2.990900	3.845300	-11.499000	22.046632	0.000922	20.897007
164.045316	-3.011300	3.846300	-11.581000	22.044940	0.000923	20.877771
165.046605	-3.020500	3.845100	-11.613000	22.054836	0.000923	20.881988
166.044101	-3.003200	3.844100	-11.544000	22.064561	0.000922	20.860431
167.048440	-2.988600	3.844600	-11.488000	22.047862	0.000923	20.883540
168.047156	-2.997800	3.845900	-11.528000	22.056360	0.000924	20.871661
169.048327	-2.988000	3.845900	-11.489000	22.094875	0.000924	20.889828
170.047364	-3.010300	3.844700	-11.573000	22.081067	0.000923	20.866998
171.047763	-2.996800	3.843200	-11.516000	22.074064	0.000925	20.885590
172.048778	-2.981900	3.844700	-11.464000	22.088126	0.000924	20.868374
173.048277	-3.003300	3.844200	-11.542000	22.094384	0.000924	20.868475
174.053296	-3.011900	3.844200	-11.577000	22.093761	0.000924	20.891084
175.047885	-3.005500	3.844600	-11.553000	22.119163	0.000927	20.870523
176.051586	-2.996200	3.843800	-11.516000	22.097478	0.000926	20.884848
177.050221	-2.986600	3.842600	-11.475000	22.109246	0.000925	20.883827
178.053718	-2.993100	3.843200	-11.502000	22.132976	0.000926	20.877713
179.051304	-3.013100	3.842400	-11.577000	22.141453	0.000928	20.883355
180.051455	-3.000600	3.841400	-11.525000	22.164061	0.000927	20.899350
181.051149	-3.009500	3.841000	-11.557000	22.146066	0.000927	20.888448
182.051839	-2.992900	3.841800	-11.497000	22.161645	0.000929	20.873226
183.053783	-2.997300	3.841400	-11.512000	22.174335	0.000929	20.884982
184.052097	-2.995900	3.840500	-11.503000	22.191632	0.000928	20.896135
185.053242	-2.992900	3.840800	-11.494000	22.211026	0.000930	20.870510
186.053401	-2.999000	3.841500	-11.520000	22.204770	0.000929	20.883211
187.052897	-2.965900	3.843000	-11.396000	22.202253	0.000931	20.856511
188.052653	-2.988800	3.841400	-11.480000	22.179947	0.000931	20.882540
189.053663	-3.016800	3.840600	-11.585000	22.187351	0.000931	20.894693
190.054323	-3.030300	3.839700	-11.633000	22.181693	0.000930	20.872909
191.054983	-3.008200	3.840800	-11.553000	22.177604	0.000932	20.867393
192.060896	-2.989700	3.840400	-11.480000	22.226461	0.000932	20.886911
193.055209	-2.990100	3.840400	-11.482000	22.234110	0.000933	20.879872
194.093752	-2.986800	3.840000	-11.468000	22.214198	0.000932	20.883168
195.056058	-2.999900	3.840900	-11.522000	22.236682	0.000932	20.883395
196.056561	-2.981000	3.841100	-11.448000	22.239274	0.000931	20.864654
197.062641	-3.002100	3.839600	-11.526000	22.248223	0.000934	20.861761
198.057299	-2.999800	3.839200	-11.515000	22.235888	0.000934	20.866954
199.057959	-2.997500	3.839900	-11.508000	22.245709	0.000933	20.875838
200.058936	-2.998700	3.837300	-11.506000	22.236163	0.000936	20.846842
201.061516	-3.011800	3.836700	-11.554000	22.224824	0.000936	20.849239
202.057502	-2.989200	3.837900	-11.471000	22.221485	0.000935	20.843999
203.059883	-2.964100	3.837900	-11.374000	22.241676	0.000935	20.863266
204.058480	-3.001600	3.838100	-11.519000	22.231084	0.000935	20.860722
205.058705	-3.001500	3.837800	-11.518000	22.240905	0.000939	20.875769
206.057544	-3.016600	3.836600	-11.573000	22.265331	0.000937	20.853761
207.059299	-2.990800	3.836400	-11.472000	22.267750	0.000937	20.858554
208.058264	-2.994100	3.837200	-11.487000	22.265058	0.000938	20.847798
209.059851	-2.979600	3.837400	-11.433000	22.271714	0.000939	20.856833
210.060046	-2.989100	3.837600	-11.470000	22.281708	0.000937	20.836969
211.058825	-3.001300	3.834200	-11.507000	22.263567	0.000941	20.877597
212.060826	-3.008900	3.835000	-11.538000	22.261722	0.000941	20.841613
213.060862	-2.993100	3.836800	-11.483000	22.281836	0.000941	20.839468
214.059969	-2.995300	3.835200	-11.487000	22.303371	0.000943	20.850599
215.059507	-2.985600	3.835800	-11.452000	22.298038	0.000940	20.866121
216.059471	-2.999100	3.834300	-11.498000	22.320718	0.000940	20.842365
217.059732	-3.019300	3.834600	-11.577000	22.327870	0.000943	20.850475
218.059831	-2.998400	3.834700	-11.496000	22.326875	0.000944	20.860384
219.060338	-3.014300	3.832900	-11.553000	22.339162	0.000942	20.845187
220.065537	-3.013300	3.835200	-11.554000	22.361992	0.000944	20.847659
221.060671	-3.036900	3.832400	-11.636000	22.353117	0.000943	20.835453
222.058951	-3.032300	3.831400	-11.615000	22.359848	0.000944	20.831288
223.061378	-3.012400	3.832800	-11.545000	22.362515	0.000943	20.865725
224.062447	-2.984500	3.833100	-11.439000	22.364409	0.000945	20.829217
225.060544	-2.984300	3.834500	-11.441000	22.390278	0.000945	20.851327
226.068794	-2.992200	3.832600	-11.467000	22.392645	0.000945	20.822405
227.063097	-3.008000	3.832200	-11.526000	22.393419	0.000945	20.848783
228.066922	-2.996900	3.833500	-11.488000	22.382729	0.000947	20.835234
229.074102	-3.024600	3.832300	-11.590000	22.386515	0.000946	20.828594
230.066863	-3.011300	3.831100	-11.535000	22.381259	0.000949	20.826175
231.066258	-3.006200	3.830400	-11.514000	22.341660	0.000945	20.828248
232.063037	-3.003700	3.831000	-11.506000	22.353795	0.000949	20.823331
233.061312	-2.989100	3.830500	-11.448000	22.384898	0.000949	20.847837
234.065605	-2.994600	3.830900	-11.472000	22.398205	0.000949	20.820860
235.068424	-2.981900	3.832700	-11.428000	22.393172	0.000950	20.830045
236.059816	-2.988700	3.831200	-11.448000	22.398505	0.000952	20.820212
237.065848	-2.989600	3.829800	-11.448000	22.394744	0.000952	20.823084
238.066026	-2.983600	3.831200	-11.430000	22.402367	0.000951	20.833563
239.061120	-3.012600	3.830000	-11.538000	22.387366	0.000952	20.824705
240.065188	-3.003200	3.830200	-11.502000	22.405833	0.000954	20.824231
241.066418	-2.986300	3.829500	-11.435000	22.428186	0.000953	20.820063
242.062037	-3.005400	3.829500	-11.507000	22.422603	0.000954	20.806887
243.064197	-2.986300	3.830700	-11.438000	22.429807	0.000953	20.816945
244.065897	-3.012600	3.829300	-11.535000	22.453530	0.000954	20.837383
245.062161	-3.020600	3.828100	-11.561000	22.447722	0.000956	20.821136
246.067744	-2.994100	3.828400	-11.461000	22.456718	0.000954	20.826351
247.065029	-2.967600	3.829900	-11.364000	22.459735	0.000955	20.819889
248.063118	-2.974900	3.827400	-11.384000	22.473740	0.000957	20.825380
249.065751	-3.014600	3.825800	-11.532000	22.485926	0.000955	20.813876
250.064651	-3.001600	3.826100	-11.482000	22.472270	0.000958	20.817744
251.064003	-3.011000	3.826600	-11.521000	22.493251	0.000959	20.826902
252.068315	-3.000400	3.825900	-11.478000	22.490487	0.000959	20.832194
253.070158	-3.008900	3.825800	-11.510000	22.529160	0.000961	20.801226
254.064274	-3.013000	3.826100	-11.527000	22.544035	0.000958	20.813752
255.067653	-2.970600	3.827300	-11.367000	22.527413	0.000961	20.822235
256.069632	-3.000400	3.824800	-11.475000	22.513411	0.000962	20.809634
257.066852	-2.995100	3.825000	-11.455000	22.512687	0.000960	20.825030
258.070739	-3.006900	3.826300	-11.504000	22.520564	0.000962	20.818220
259.070709	-3.000000	3.826200	-11.478000	22.540397	0.000961	20.811531
260.067890	-3.017600	3.826100	-11.545000	22.527688	0.000963	20.795010
261.069479	-3.012900	3.826100	-11.526000	22.539524	0.000961	20.809709
262.073680	-2.982100	3.825000	-11.405000	22.542964	0.000963	20.815050
263.068652	-3.007700	3.823600	-11.499000	22.545555	0.000964	20.785403
264.068643	-2.977500	3.825200	-11.389000	22.582108	0.000965	20.828175
265.070731	-3.013300	3.823500	-11.521000	22.591625	0.000964	20.817320
266.068830	-2.999800	3.825200	-11.473000	22.564018	0.000966	20.813852
267.072576	-3.013800	3.821900	-11.518000	22.563270	0.000965	20.808835
268.070652	-3.010000	3.823400	-11.506000	22.573412	0.000966	20.808561
269.070800	-2.997600	3.823000	-11.458000	22.589533	0.000965	20.819966
270.073798	-3.020400	3.821600	-11.541000	22.582331	0.000968	20.815597
271.074450	-2.994500	3.822300	-11.444000	22.592748	0.000968	20.813228
272.078092	-2.993500	3.822100	-11.441000	22.604285	0.000967	20.806766
