LabVIEW Measurement	
Writer_Version	2
Reader_Version	2
Separator	Tab
Decimal_Separator	.
Multi_Headings	No
X_Columns	One
Time_Pref	Absolute
Operator	admin
Description	Clolumns are: time, Current, Voltage, Power, Battery Temp, and Chamber Temp
Date	2024/08/16
Time	13:06:06.104549407958984375
***End_of_Header***	
	
Channels	6						
Samples	1	1	1	1	1	1	
Date	2024/09/09	2024/09/09	2024/09/09	2024/09/09	2024/09/09	2024/09/09	
Time	07:49:00.9412455558776855469	07:49:00.9472432136535644532	07:49:00.9549264907836914063	07:49:00.9217839241027832032	07:49:00.9217839241027832032	07:49:00.9217839241027832032	
X_Dimension	Time	Time	Time	Time	Time	Time	
X0	0.0000000000000000E+0	0.0000000000000000E+0	0.0000000000000000E+0	0.0000000000000000E+0	0.0000000000000000E+0	0.0000000000000000E+0	
Delta_X	1.000000	1.000000	1.000000	1.000000	1.000000	1.000000	
***End_of_Header***							
X_Value	Untitled	Untitled 1	Untitled 2	Untitled 3	Untitled 4	Untitled 5	Comment
0.000000	0.025851	4.100100	0.106030	20.966655	0.000900	20.756616
0.997013	-3.000300	3.925600	-11.776000	20.969621	0.000900	20.743935
1.998147	-2.993600	3.918200	-11.729000	21.001700	0.000901	20.726707
2.996053	-2.986100	3.913100	-11.684000	20.971384	0.000897	20.749018
3.995442	-2.985900	3.908500	-11.669000	21.000668	0.000897	20.756496
4.999463	-2.995700	3.905600	-11.700000	20.999793	0.000897	20.731912
5.999022	-3.002400	3.903000	-11.717000	20.986665	0.000897	20.746758
6.998199	-2.980100	3.899400	-11.618000	20.990737	0.000895	20.753675
7.997187	-2.979200	3.897700	-11.610000	20.983346	0.000896	20.751974
8.997762	-2.997500	3.895000	-11.673000	21.000827	0.000894	20.755233
9.998997	-2.986900	3.895300	-11.634000	20.995163	0.000893	20.736764
11.001861	-2.983600	3.892700	-11.613000	21.001290	0.000894	20.756170
12.000928	-2.982500	3.891500	-11.606000	21.020981	0.000893	20.752631
13.007036	-2.985200	3.889900	-11.611000	21.018903	0.000893	20.752449
14.005430	-3.003900	3.887700	-11.678000	21.013737	0.000891	20.770042
15.003054	-3.019000	3.885400	-11.729000	21.043202	0.000889	20.760632
16.011235	-2.981800	3.887200	-11.590000	21.024459	0.000890	20.776025
17.005456	-2.985500	3.885200	-11.598000	21.033710	0.000888	20.763466
18.007505	-3.008400	3.882400	-11.679000	21.052915	0.000888	20.757545
19.006760	-3.010300	3.881900	-11.685000	21.026587	0.000887	20.752548
20.009428	-2.995000	3.881200	-11.624000	21.051688	0.000887	20.779551
21.009001	-2.996800	3.879500	-11.624000	21.038403	0.000884	20.764841
22.013767	-2.989700	3.881500	-11.604000	21.045126	0.000886	20.775833
23.012194	-2.987200	3.879500	-11.588000	21.067163	0.000884	20.751407
24.011868	-3.001200	3.877600	-11.635000	21.080533	0.000887	20.758617
25.009735	-3.009400	3.878600	-11.671000	21.084485	0.000886	20.763044
26.014178	-3.010200	3.875800	-11.666000	21.089371	0.000884	20.754180
27.010900	-2.993300	3.875500	-11.599000	21.091110	0.000884	20.755445
28.011723	-3.010600	3.874400	-11.662000	21.131329	0.000886	20.772917
29.011691	-2.999700	3.874100	-11.620000	21.111043	0.000886	20.759263
30.012772	-3.005900	3.873500	-11.641000	21.125022	0.000882	20.762340
31.012263	-3.019600	3.872100	-11.691000	21.122555	0.000883	20.778839
32.012357	-2.984700	3.872300	-11.556000	21.123175	0.000882	20.756225
33.010695	-3.014700	3.870600	-11.667000	21.148614	0.000882	20.769344
34.013116	-2.991100	3.872100	-11.581000	21.143035	0.000881	20.766134
35.011393	-2.985900	3.870600	-11.556000	21.144385	0.000883	20.767485
36.012790	-3.010800	3.869000	-11.647000	21.163467	0.000881	20.772348
37.014822	-2.994200	3.870700	-11.588000	21.159177	0.000881	20.771850
38.013829	-2.992700	3.868300	-11.576000	21.165789	0.000881	20.781309
39.012187	-3.003500	3.868800	-11.619000	21.175136	0.000880	20.782124
40.012432	-3.002000	3.868100	-11.611000	21.193925	0.000881	20.759668
41.013150	-3.003700	3.867800	-11.617000	21.199930	0.000879	20.774209
42.014457	-2.972900	3.867500	-11.497000	21.178101	0.000880	20.775133
43.012554	-3.002000	3.866300	-11.606000	21.195008	0.000879	20.778769
44.015888	-2.988900	3.867700	-11.559000	21.202483	0.000880	20.772496
45.015470	-3.006100	3.866700	-11.623000	21.211196	0.000881	20.779316
46.016406	-2.986300	3.866800	-11.546000	21.225611	0.000878	20.798952
47.019334	-2.988300	3.865800	-11.550000	21.244667	0.000881	20.772022
48.018386	-3.009300	3.865300	-11.631000	21.247013	0.000879	20.785274
49.019908	-2.984100	3.864500	-11.531000	21.266518	0.000880	20.773967
50.019846	-3.001500	3.864400	-11.598000	21.255604	0.000879	20.780119
51.016847	-2.976000	3.863800	-11.497000	21.274770	0.000878	20.777007
52.016484	-3.002400	3.862900	-11.597000	21.273519	0.000878	20.783816
53.018160	-3.007300	3.862400	-11.612000	21.278830	0.000879	20.796716
54.017919	-3.020300	3.861100	-11.661000	21.290229	0.000879	20.784886
55.021863	-3.011100	3.862400	-11.628000	21.292101	0.000878	20.773956
56.019695	-2.991900	3.861900	-11.553000	21.297303	0.000878	20.782006
57.020597	-2.999600	3.862900	-11.586000	21.305967	0.000878	20.805846
58.025789	-3.004700	3.859400	-11.596000	21.314438	0.000877	20.794881
59.020499	-3.007500	3.860200	-11.609000	21.333214	0.000876	20.790432
60.022325	-3.023400	3.859600	-11.668000	21.325485	0.000877	20.799294
61.019824	-3.014700	3.861400	-11.640000	21.339618	0.000874	20.787356
62.021153	-2.993400	3.860400	-11.556000	21.339970	0.000877	20.774432
63.020627	-2.999700	3.859600	-11.576000	21.356522	0.000878	20.798578
64.026972	-2.985800	3.858800	-11.521000	21.383086	0.000877	20.801448
65.023035	-2.982500	3.859500	-11.510000	21.375601	0.000877	20.780208
66.020037	-2.979300	3.859100	-11.496000	21.374458	0.000875	20.789022
67.020970	-3.016700	3.857000	-11.635000	21.393051	0.000876	20.779175
68.021611	-2.993800	3.858800	-11.552000	21.389672	0.000876	20.800925
69.024352	-3.007800	3.856600	-11.598000	21.412178	0.000877	20.813011
70.024745	-3.013000	3.856600	-11.619000	21.414341	0.000878	20.794313
71.024100	-2.976700	3.858800	-11.486000	21.409724	0.000875	20.785900
72.024029	-3.003100	3.856600	-11.580000	21.429530	0.000876	20.799553
73.021358	-3.000700	3.856300	-11.569000	21.442131	0.000877	20.803151
74.024949	-3.017100	3.855500	-11.630000	21.452569	0.000877	20.803638
75.024311	-2.981700	3.855800	-11.496000	21.450005	0.000875	20.795383
76.027591	-3.006700	3.856700	-11.595000	21.430917	0.000876	20.799991
77.026354	-3.014100	3.853800	-11.615000	21.471051	0.000875	20.817863
78.024603	-2.991900	3.855100	-11.533000	21.470966	0.000876	20.790752
79.029639	-2.984400	3.856000	-11.507000	21.474113	0.000878	20.814289
80.029349	-2.996800	3.853800	-11.547000	21.485632	0.000877	20.822021
81.026575	-3.014700	3.853800	-11.617000	21.480384	0.000878	20.822460
82.029882	-3.012500	3.853900	-11.609000	21.518183	0.000876	20.818082
83.029241	-3.004000	3.852800	-11.572000	21.528196	0.000876	20.823360
84.027826	-2.981700	3.854000	-11.491000	21.519945	0.000877	20.819846
85.032436	-2.994300	3.852800	-11.535000	21.533481	0.000877	20.795458
86.028570	-3.023500	3.851700	-11.645000	21.560308	0.000875	20.812345
87.032247	-3.007900	3.853900	-11.591000	21.526397	0.000878	20.812078
88.028437	-2.995700	3.853600	-11.543000	21.541403	0.000876	20.807653
89.029563	-2.999600	3.852200	-11.554000	21.544563	0.000875	20.810814
90.031528	-2.975000	3.853000	-11.461000	21.572179	0.000876	20.791981
91.028494	-2.984400	3.851600	-11.494000	21.579931	0.000876	20.804006
92.029911	-2.980100	3.852200	-11.479000	21.559569	0.000880	20.802122
93.030001	-2.990800	3.851500	-11.518000	21.570892	0.000877	20.806815
94.029360	-2.984800	3.851000	-11.493000	21.603538	0.000878	20.796809
95.030923	-2.992800	3.851000	-11.523000	21.593357	0.000879	20.818389
96.029764	-3.011900	3.850100	-11.596000	21.596736	0.000879	20.811813
97.031175	-2.997900	3.850700	-11.542000	21.613441	0.000878	20.803400
98.031574	-3.008900	3.850600	-11.585000	21.608205	0.000877	20.804798
99.034957	-2.985500	3.851100	-11.496000	21.616419	0.000878	20.795475
100.032918	-2.987200	3.851100	-11.502000	21.643656	0.000878	20.788593
101.032298	-3.000100	3.850400	-11.550000	21.628362	0.000877	20.788934
102.032177	-3.000300	3.848700	-11.546000	21.646816	0.000876	20.768521
103.034759	-3.012700	3.847900	-11.592000	21.640244	0.000879	20.807938
104.035689	-3.020500	3.847200	-11.619000	21.656960	0.000879	20.800010
105.034203	-3.004700	3.848800	-11.562000	21.676131	0.000879	20.801652
106.037300	-2.998400	3.848100	-11.537000	21.678513	0.000880	20.799294
107.033502	-3.001700	3.847400	-11.548000	21.686823	0.000880	20.783902
108.036459	-3.023600	3.847200	-11.632000	21.663777	0.000881	20.805884
109.033674	-3.011400	3.847700	-11.586000	21.731687	0.000877	20.786603
110.033207	-3.010300	3.846000	-11.576000	21.692315	0.000879	20.782286
111.035583	-2.980900	3.847300	-11.467000	21.699300	0.000880	20.787854
112.037097	-3.016300	3.846300	-11.600000	21.717669	0.000881	20.805289
113.036713	-3.018600	3.845600	-11.607000	21.715980	0.000880	20.797909
114.035695	-2.997600	3.845800	-11.527000	21.706869	0.000880	20.780731
115.035398	-3.004700	3.846600	-11.557000	21.737264	0.000880	20.789339
116.036772	-3.008800	3.846200	-11.572000	21.729843	0.000881	20.794240
117.040713	-3.015800	3.844500	-11.593000	21.741784	0.000880	20.788173
118.037475	-2.993200	3.847900	-11.515000	21.744736	0.000880	20.772160
119.043452	-3.010900	3.844700	-11.575000	21.741273	0.000881	20.781023
120.036326	-3.007400	3.845200	-11.562000	21.740886	0.000881	20.779213
121.037137	-2.998600	3.845500	-11.531000	21.731313	0.000884	20.779590
122.037503	-3.005500	3.844000	-11.553000	21.752778	0.000882	20.770252
123.038187	-2.991500	3.843600	-11.497000	21.767319	0.000882	20.795237
124.036435	-3.011000	3.844500	-11.575000	21.785722	0.000884	20.769085
125.038289	-2.991700	3.843500	-11.497000	21.760930	0.000882	20.764186
126.037859	-3.003400	3.842900	-11.540000	21.781702	0.000881	20.789243
127.038526	-2.984900	3.843800	-11.473000	21.789452	0.000886	20.780879
128.039967	-2.990800	3.843200	-11.494000	21.781277	0.000884	20.760842
129.038671	-2.998000	3.843300	-11.521000	21.806033	0.000885	20.775663
130.038561	-2.972600	3.844200	-11.426000	21.786561	0.000885	20.772295
131.037416	-2.976700	3.843300	-11.439000	21.806580	0.000885	20.752028
132.037082	-3.019600	3.841200	-11.598000	21.813006	0.000884	20.755615
133.039955	-3.008300	3.841400	-11.555000	21.826793	0.000884	20.769415
134.039310	-2.992700	3.843100	-11.500000	21.837215	0.000886	20.769889
135.040808	-2.981400	3.841800	-11.452000	21.845269	0.000886	20.776527
136.038593	-2.982400	3.842500	-11.458000	21.848135	0.000886	20.775129
137.039809	-2.995800	3.841400	-11.507000	21.865433	0.000886	20.777744
138.041208	-2.984400	3.840700	-11.461000	21.861995	0.000887	20.757233
139.043654	-2.992800	3.842500	-11.499000	21.865189	0.000886	20.756637
140.040595	-2.990000	3.841300	-11.484000	21.869452	0.000887	20.775129
141.042695	-3.020300	3.840200	-11.597000	21.868056	0.000887	20.741962
142.044367	-2.997900	3.840400	-11.511000	21.871166	0.000885	20.754084
143.044346	-2.993700	3.841500	-11.499000	21.858424	0.000888	20.765513
144.047050	-3.002300	3.840800	-11.529000	21.896978	0.000888	20.776602
145.044535	-2.988300	3.841500	-11.478000	21.908117	0.000889	20.768785
146.048808	-2.988400	3.839700	-11.473000	21.895023	0.000888	20.759947
147.045690	-2.990700	3.840800	-11.484000	21.883362	0.000890	20.763922
148.046836	-2.979900	3.839000	-11.438000	21.921174	0.000891	20.769053
149.051783	-2.986800	3.841600	-11.473000	21.928693	0.000890	20.766622
150.046768	-2.996000	3.838600	-11.500000	21.942395	0.000890	20.762793
151.047977	-2.995900	3.838600	-11.500000	21.950824	0.000891	20.752738
152.047741	-3.004000	3.838500	-11.530000	21.947884	0.000891	20.743632
153.046307	-2.990900	3.838300	-11.478000	21.988633	0.000891	20.749809
154.051452	-3.017000	3.837000	-11.575000	21.959934	0.000891	20.759962
155.047932	-2.973300	3.839000	-11.413000	21.978542	0.000891	20.763890
156.049884	-3.000300	3.838200	-11.513000	21.984578	0.000892	20.749543
157.049124	-2.994200	3.837000	-11.488000	21.997028	0.000893	20.762481
158.048547	-3.003000	3.836900	-11.521000	22.005299	0.000894	20.741362
159.051796	-3.003300	3.836900	-11.522000	22.033377	0.000894	20.756669
160.053223	-2.984600	3.836600	-11.450000	22.036622	0.000895	20.747114
161.049951	-3.021800	3.834700	-11.587000	22.041721	0.000894	20.730407
162.051282	-2.993400	3.835500	-11.481000	22.019000	0.000895	20.737059
163.055573	-3.007200	3.835500	-11.534000	22.037837	0.000893	20.753072
164.053935	-2.988100	3.836000	-11.461000	22.044006	0.000895	20.745023
165.057184	-3.017600	3.835000	-11.571000	22.041274	0.000894	20.740866
166.054131	-3.001400	3.835400	-11.510000	22.044517	0.000897	20.757863
167.058000	-2.988400	3.835700	-11.461000	22.043193	0.000895	20.738045
168.054489	-2.963500	3.836300	-11.368000	22.038129	0.000896	20.755736
169.055693	-3.003400	3.833200	-11.512000	22.056674	0.000897	20.767663
170.058554	-2.992900	3.834000	-11.473000	22.061070	0.000898	20.733656
171.055870	-2.996900	3.834400	-11.490000	22.062915	0.000897	20.746410
172.055095	-3.001700	3.832800	-11.504000	22.069340	0.000899	20.758058
173.057769	-2.998800	3.833100	-11.494000	22.062988	0.000897	20.743164
174.058298	-3.007800	3.832600	-11.527000	22.074878	0.000898	20.726142
175.058487	-2.998600	3.833800	-11.494000	22.078036	0.000900	20.734520
176.063715	-3.003900	3.831700	-11.509000	22.072826	0.000900	20.732623
177.057467	-2.987500	3.832200	-11.447000	22.081192	0.000899	20.723928
178.058414	-2.979500	3.833700	-11.420000	22.094892	0.000901	20.748076
179.058690	-2.998300	3.832800	-11.490000	22.093677	0.000901	20.753972
180.060734	-2.997200	3.832900	-11.487000	22.115997	0.000904	20.747394
181.065038	-3.005400	3.831100	-11.513000	22.134310	0.000905	20.718785
182.058695	-2.984300	3.831100	-11.432000	22.152247	0.000903	20.755711
183.068646	-2.988200	3.832400	-11.451000	22.137406	0.000905	20.728524
184.059697	-3.009900	3.830800	-11.529000	22.137043	0.000903	20.727212
185.062340	-2.998500	3.831100	-11.487000	22.150631	0.000904	20.752671
186.060084	-2.999800	3.830500	-11.490000	22.152307	0.000905	20.728743
187.070991	-2.991500	3.830700	-11.457000	22.169210	0.000905	20.732390
188.061095	-3.005900	3.830500	-11.512000	22.173120	0.000905	20.729193
189.064482	-2.984500	3.831600	-11.434000	22.187983	0.000905	20.745023
190.060057	-2.989000	3.830500	-11.449000	22.197357	0.000906	20.721690
191.061802	-2.967300	3.831000	-11.366000	22.214468	0.000906	20.732184
192.063256	-3.013200	3.830000	-11.540000	22.236190	0.000907	20.726432
193.059535	-3.021500	3.828800	-11.568000	22.227568	0.000909	20.747199
194.064855	-2.978400	3.830000	-11.406000	22.222202	0.000908	20.729022
195.060698	-2.990500	3.828800	-11.448000	22.218340	0.000908	20.711405
196.062378	-2.990300	3.828100	-11.445000	22.231248	0.000908	20.724804
197.066577	-2.995700	3.827800	-11.466000	22.227993	0.000907	20.712535
198.062180	-2.993600	3.827600	-11.457000	22.226986	0.000910	20.718639
199.069881	-3.008500	3.827500	-11.514000	22.247216	0.000910	20.702858
200.062782	-3.000100	3.827900	-11.483000	22.228710	0.000910	20.711356
201.064221	-2.984500	3.829100	-11.427000	22.266400	0.000912	20.716851
202.067166	-3.004400	3.826600	-11.495000	22.262552	0.000910	20.731965
203.067775	-3.017400	3.826800	-11.547000	22.266024	0.000911	20.717423
204.061787	-3.006500	3.827900	-11.507000	22.290502	0.000912	20.702102
205.064169	-2.980900	3.826500	-11.405000	22.278980	0.000913	20.716171
206.065525	-2.998200	3.826700	-11.472000	22.282841	0.000914	20.727150
207.067433	-2.990200	3.826400	-11.440000	22.300483	0.000914	20.703563
208.070771	-3.003400	3.826100	-11.491000	22.299694	0.000914	20.700401
209.066932	-2.981900	3.828100	-11.414000	22.285561	0.000916	20.739831
210.064046	-3.005800	3.825400	-11.497000	22.302159	0.000916	20.712353
211.067548	-3.003200	3.825600	-11.488000	22.295772	0.000917	20.717813
212.069893	-3.004400	3.825500	-11.493000	22.315079	0.000916	20.712488
213.064249	-2.995500	3.824300	-11.455000	22.309443	0.000916	20.717751
214.065622	-2.996000	3.824500	-11.455000	22.338025	0.000916	20.702273
215.064259	-3.005500	3.823100	-11.489000	22.315734	0.000917	20.709350
216.065883	-3.001600	3.823900	-11.476000	22.354914	0.000918	20.698796
217.064139	-3.001000	3.823600	-11.474000	22.343344	0.000919	20.731783
218.065788	-3.015400	3.822600	-11.525000	22.343041	0.000920	20.715357
219.067646	-2.998900	3.823800	-11.466000	22.335270	0.000919	20.681969
220.065386	-3.006600	3.821500	-11.488000	22.344023	0.000919	20.705909
221.065193	-3.014600	3.821600	-11.520000	22.360851	0.000920	20.723235
222.070138	-3.003300	3.822600	-11.480000	22.378249	0.000920	20.698929
223.063828	-3.008000	3.821600	-11.494000	22.393595	0.000921	20.710031
224.069156	-2.995100	3.822700	-11.448000	22.400516	0.000920	20.689459
225.064900	-3.002200	3.822900	-11.477000	22.379913	0.000924	20.703915
226.069049	-2.986400	3.822200	-11.413000	22.409948	0.000920	20.714553
227.064237	-3.012900	3.821000	-11.512000	22.412887	0.000923	20.701848
228.068707	-3.010100	3.820300	-11.499000	22.416772	0.000925	20.702893
229.071319	-3.000400	3.820800	-11.463000	22.421361	0.000923	20.705118
230.068730	-3.000800	3.821200	-11.466000	22.416613	0.000923	20.715537
231.068819	-3.003500	3.821100	-11.474000	22.433853	0.000922	20.714784
232.073285	-2.991500	3.820300	-11.427000	22.457223	0.000924	20.729654
233.066552	-3.012900	3.819100	-11.505000	22.458911	0.000923	20.694358
234.066662	-2.982500	3.821300	-11.395000	22.463354	0.000925	20.694066
235.066419	-2.993500	3.819000	-11.431000	22.484987	0.000925	20.706723
236.066117	-2.993300	3.819200	-11.430000	22.469108	0.000927	20.687500
237.066551	-2.989200	3.818400	-11.413000	22.490766	0.000926	20.698759
238.069595	-3.005000	3.819300	-11.476000	22.496423	0.000928	20.701580
239.080118	-2.993200	3.819100	-11.429000	22.484343	0.000926	20.694223
240.068655	-2.974600	3.819500	-11.360000	22.503584	0.000928	20.682197
241.069326	-2.982600	3.819000	-11.389000	22.525133	0.000928	20.704254
242.067406	-3.006400	3.817500	-11.474000	22.537648	0.000930	20.707305
243.068290	-2.974600	3.819500	-11.360000	22.536300	0.000930	20.692679
244.067931	-2.993300	3.816900	-11.423000	22.526504	0.000933	20.669115
245.074079	-3.014700	3.815900	-11.503000	22.532513	0.000930	20.689359
246.072975	-2.999700	3.817400	-11.450000	22.555492	0.000933	20.692459
247.069651	-3.004600	3.816400	-11.466000	22.548610	0.000933	20.681772
248.070147	-3.009300	3.816700	-11.485000	22.544046	0.000932	20.695220
249.072652	-2.994000	3.817100	-11.427000	22.559571	0.000933	20.680422
250.076494	-3.011500	3.815300	-11.490000	22.544276	0.000934	20.678854
251.071919	-3.010700	3.815400	-11.486000	22.554691	0.000936	20.683596
252.073365	-2.994300	3.816300	-11.426000	22.535402	0.000932	20.679450
253.072411	-3.011400	3.814300	-11.484000	22.571734	0.000935	20.681699
254.073112	-3.011400	3.814900	-11.486000	22.565458	0.000934	20.678258
255.074204	-2.996000	3.816600	-11.434000	22.565434	0.000934	20.672543
256.071647	-3.031200	3.814400	-11.561000	22.586508	0.000936	20.693651
257.077239	-3.003400	3.814400	-11.454000	22.580705	0.000939	20.676932
258.072176	-3.022800	3.813400	-11.526000	22.597699	0.000938	20.685419
259.072058	-3.025200	3.811600	-11.529000	22.586459	0.000937	20.679851
260.080315	-2.982600	3.813600	-11.374000	22.613078	0.000937	20.660517
261.072892	-2.994900	3.812400	-11.417000	22.625132	0.000938	20.683972
262.073315	-2.997300	3.814200	-11.432000	22.611853	0.000938	20.687267
263.075110	-3.006200	3.812100	-11.458000	22.622790	0.000939	20.659338
264.074970	-3.015700	3.812500	-11.496000	22.636591	0.000940	20.687389
265.073796	-3.007700	3.812900	-11.466000	22.614523	0.000941	20.676190
266.077585	-3.009500	3.812300	-11.473000	22.634527	0.000942	20.681528
267.075678	-3.004900	3.811600	-11.452000	22.615494	0.000942	20.667205
268.073668	-3.004600	3.811000	-11.450000	22.612702	0.000943	20.679583
269.074677	-3.020300	3.811200	-11.510000	22.610638	0.000942	20.669454
270.075274	-3.029500	3.810300	-11.542000	22.608563	0.000942	20.655046
271.079680	-2.985600	3.811700	-11.377000	22.616757	0.000945	20.671789
272.077110	-2.993000	3.811700	-11.408000	22.625677	0.000945	20.666498
