LabVIEW Measurement	
Writer_Version	2
Reader_Version	2
Separator	Tab
Decimal_Separator	.
Multi_Headings	No
X_Columns	One
Time_Pref	Absolute
Operator	admin
Description	Clolumns are: time, Current, Voltage, Power, Battery Temp, and Chamber Temp
Date	2024/08/16
Time	13:06:06.104549407958984375
***End_of_Header***	
	
Channels	6						
Samples	1	1	1	1	1	1	
Date	2024/09/14	2024/09/14	2024/09/14	2024/09/14	2024/09/14	2024/09/14	
Time	08:54:37.1173377037048339844	08:54:37.1243920326232910156	08:54:37.1313648223876953125	08:54:37.0992016792297363281	08:54:37.0992016792297363281	08:54:37.0992016792297363281	
X_Dimension	Time	Time	Time	Time	Time	Time	
X0	0.0000000000000000E+0	0.0000000000000000E+0	0.0000000000000000E+0	0.0000000000000000E+0	0.0000000000000000E+0	0.0000000000000000E+0	
Delta_X	1.000000	1.000000	1.000000	1.000000	1.000000	1.000000	
***End_of_Header***							
X_Value	Untitled	Untitled 1	Untitled 2	Untitled 3	Untitled 4	Untitled 5	Comment
0.000000	0.046973	4.091500	0.192400	20.994606	0.000922	20.728621
1.001216	-3.007800	3.912700	-11.768000	21.008215	0.000922	20.709988
2.000781	-3.027800	3.905400	-11.824000	20.981986	0.000921	20.717420
2.997974	-3.028900	3.899500	-11.809000	20.990699	0.000920	20.695313
4.000281	-3.010400	3.896700	-11.730000	21.012260	0.000919	20.732054
4.998893	-3.016300	3.893100	-11.742000	20.995717	0.000918	20.707920
6.002263	-2.996800	3.890100	-11.656000	21.006351	0.000918	20.699588
6.998625	-3.011100	3.887400	-11.705000	20.993828	0.000917	20.714092
7.998289	-3.013100	3.884100	-11.702000	21.014295	0.000916	20.677186
9.002617	-2.984200	3.883600	-11.588000	21.014867	0.000916	20.695778
10.001965	-2.995300	3.881100	-11.624000	21.006439	0.000914	20.710583
10.999950	-2.995300	3.881200	-11.624000	21.020318	0.000915	20.705023
11.999479	-3.000900	3.877700	-11.635000	21.017555	0.000915	20.688508
13.000698	-2.988600	3.877300	-11.587000	21.019075	0.000913	20.714687
14.001433	-3.003100	3.876100	-11.639000	21.026709	0.000912	20.702407
15.005026	-3.008700	3.875200	-11.658000	21.038691	0.000913	20.684044
16.000558	-3.018800	3.874000	-11.694000	21.037399	0.000911	20.684648
17.001143	-3.011600	3.873100	-11.662000	21.053811	0.000912	20.702014
18.000373	-3.003100	3.872100	-11.628000	21.056762	0.000908	20.720613
19.001110	-3.000700	3.870200	-11.612000	21.051506	0.000908	20.708243
20.005382	-3.015100	3.869800	-11.666000	21.049585	0.000910	20.704899
21.002154	-2.987900	3.869800	-11.561000	21.052952	0.000908	20.716803
22.002909	-2.980000	3.870000	-11.531000	21.062580	0.000908	20.703199
23.000594	-2.968000	3.867900	-11.478000	21.057194	0.000907	20.717252
24.002784	-2.993200	3.865700	-11.569000	21.048212	0.000908	20.691197
25.004498	-2.998700	3.867500	-11.597000	21.093482	0.000907	20.713246
26.003248	-2.994900	3.864000	-11.572000	21.093310	0.000906	20.690312
27.004252	-2.998000	3.864400	-11.584000	21.089714	0.000907	20.691932
28.004227	-2.997600	3.864800	-11.583000	21.078745	0.000907	20.701349
29.007772	-3.010700	3.862600	-11.627000	21.105161	0.000907	20.691735
30.005510	-3.016500	3.863100	-11.651000	21.113995	0.000904	20.675915
31.007825	-3.011200	3.860900	-11.623000	21.114968	0.000905	20.701072
32.009014	-3.002900	3.860400	-11.591000	21.115892	0.000903	20.700573
33.005037	-2.993100	3.859200	-11.550000	21.122601	0.000904	20.699224
34.004606	-3.004100	3.858900	-11.592000	21.135007	0.000905	20.671802
35.004958	-2.993900	3.859800	-11.554000	21.159729	0.000906	20.701276
36.007736	-3.005100	3.859400	-11.597000	21.148484	0.000903	20.681490
37.005099	-2.995800	3.856600	-11.552000	21.162075	0.000904	20.695087
38.007902	-3.002900	3.858200	-11.584000	21.145640	0.000903	20.692396
39.006790	-2.982800	3.856600	-11.503000	21.175035	0.000903	20.680075
40.005273	-2.996800	3.855000	-11.551000	21.157539	0.000903	20.679168
41.008832	-2.998300	3.856500	-11.562000	21.170860	0.000903	20.681114
42.009542	-2.972400	3.855700	-11.459000	21.187622	0.000904	20.681760
43.005870	-2.989600	3.855500	-11.525000	21.177594	0.000904	20.686903
44.005531	-2.992700	3.853900	-11.533000	21.198728	0.000903	20.680067
45.005693	-3.009000	3.854300	-11.596000	21.216764	0.000901	20.667763
46.006614	-3.014300	3.853400	-11.613000	21.217188	0.000903	20.676249
47.009086	-2.990500	3.853900	-11.525000	21.218569	0.000903	20.676682
48.005427	-3.019900	3.852800	-11.634000	21.240185	0.000902	20.687401
49.009238	-2.986400	3.852600	-11.504000	21.230541	0.000903	20.674908
50.006668	-3.010500	3.851100	-11.592000	21.253888	0.000903	20.690679
51.005950	-3.007200	3.850400	-11.578000	21.254583	0.000904	20.695168
52.009753	-3.005400	3.852100	-11.576000	21.279401	0.000902	20.679691
53.007657	-2.994700	3.850500	-11.529000	21.256830	0.000903	20.675129
54.007777	-2.997700	3.850200	-11.541000	21.277309	0.000901	20.686608
55.008494	-3.007600	3.850300	-11.579000	21.271393	0.000902	20.684482
56.008333	-3.006700	3.850100	-11.574000	21.271687	0.000902	20.680035
57.009038	-3.007400	3.848800	-11.572000	21.301122	0.000903	20.666332
58.010565	-2.989700	3.849500	-11.507000	21.308631	0.000902	20.662465
59.007864	-2.989500	3.849600	-11.506000	21.317260	0.000902	20.674893
60.009051	-2.984700	3.849400	-11.488000	21.316779	0.000900	20.671091
61.008217	-3.013700	3.847400	-11.594000	21.323438	0.000901	20.670642
62.011991	-2.992900	3.847900	-11.515000	21.322417	0.000902	20.683371
63.014212	-3.006500	3.849000	-11.570000	21.334216	0.000902	20.682374
64.009898	-2.989000	3.848200	-11.502000	21.346890	0.000903	20.666128
65.012300	-3.012500	3.846600	-11.587000	21.345689	0.000900	20.658288
66.010484	-3.001600	3.846200	-11.544000	21.387688	0.000901	20.671860
67.010766	-2.995800	3.847300	-11.525000	21.397395	0.000899	20.663079
68.013096	-3.014400	3.844400	-11.587000	21.400656	0.000902	20.687206
69.013574	-2.989100	3.845800	-11.494000	21.416621	0.000901	20.663823
70.011662	-3.003700	3.843700	-11.544000	21.413483	0.000902	20.674909
71.011445	-3.014100	3.844200	-11.585000	21.430642	0.000901	20.679750
72.011402	-3.007700	3.845200	-11.564000	21.434114	0.000903	20.676585
73.010815	-3.007300	3.845100	-11.561000	21.420477	0.000902	20.680485
74.012719	-3.011500	3.843900	-11.574000	21.410190	0.000903	20.685841
75.011037	-2.991700	3.843800	-11.499000	21.428778	0.000903	20.676462
76.015119	-2.994700	3.844500	-11.512000	21.460431	0.000904	20.680632
77.010740	-3.020200	3.841900	-11.603000	21.454523	0.000901	20.658598
78.011773	-3.008400	3.842800	-11.560000	21.428614	0.000903	20.673927
79.014981	-3.001600	3.843000	-11.533000	21.476550	0.000901	20.679691
80.012883	-2.998600	3.842400	-11.521000	21.486796	0.000902	20.675718
81.012767	-2.986700	3.842800	-11.477000	21.465626	0.000903	20.701480
82.012781	-3.013500	3.841600	-11.576000	21.492645	0.000903	20.684416
83.017556	-2.994500	3.842600	-11.504000	21.486411	0.000902	20.690507
84.014152	-3.004100	3.842000	-11.540000	21.480879	0.000902	20.677385
85.017840	-2.982500	3.840900	-11.454000	21.502979	0.000902	20.693810
86.013327	-3.011900	3.840600	-11.566000	21.486647	0.000904	20.676043
87.013186	-2.987200	3.842400	-11.477000	21.514850	0.000903	20.681031
88.013727	-3.000400	3.839900	-11.520000	21.505585	0.000905	20.678872
89.016009	-2.979300	3.840300	-11.440000	21.519906	0.000904	20.687987
90.014246	-2.997200	3.840600	-11.510000	21.546540	0.000904	20.674808
91.015687	-3.003000	3.840100	-11.531000	21.533108	0.000904	20.672747
92.014971	-2.984300	3.839900	-11.458000	21.533207	0.000901	20.673319
93.017174	-2.988900	3.838500	-11.471000	21.549807	0.000905	20.701312
94.017252	-3.003800	3.838800	-11.530000	21.562225	0.000904	20.699988
95.017281	-3.012700	3.839300	-11.566000	21.578131	0.000905	20.704526
96.016695	-2.985400	3.838000	-11.456000	21.577714	0.000905	20.682295
97.016928	-3.021800	3.837200	-11.594000	21.591112	0.000906	20.679106
98.016775	-3.009300	3.837000	-11.545000	21.597173	0.000906	20.695131
99.026330	-2.974600	3.837500	-11.414000	21.580066	0.000907	20.684175
100.019107	-2.983800	3.837900	-11.451000	21.611452	0.000906	20.687608
101.021247	-2.978400	3.837200	-11.427000	21.632472	0.000906	20.671657
102.019110	-2.980600	3.837500	-11.437000	21.620553	0.000908	20.686758
103.019162	-2.984900	3.837000	-11.452000	21.641457	0.000906	20.689186
104.019752	-2.991200	3.835800	-11.472000	21.654226	0.000904	20.684894
105.021912	-2.982200	3.836500	-11.440000	21.648213	0.000907	20.676980
106.018561	-2.985200	3.837100	-11.454000	21.673251	0.000908	20.671690
107.027328	-2.999900	3.836200	-11.507000	21.663081	0.000907	20.681427
108.020705	-3.000900	3.834500	-11.507000	21.672711	0.000907	20.683479
109.020810	-3.007100	3.834100	-11.528000	21.687374	0.000908	20.675867
110.022890	-3.017400	3.836000	-11.572000	21.685308	0.000908	20.683282
111.019894	-2.995900	3.833500	-11.484000	21.698541	0.000908	20.686095
112.021608	-3.001800	3.834800	-11.509000	21.717689	0.000908	20.688188
113.020723	-2.992700	3.834900	-11.476000	21.722100	0.000909	20.690707
114.020350	-3.001500	3.834200	-11.507000	21.748182	0.000909	20.690257
115.022265	-3.011700	3.832200	-11.540000	21.738959	0.000910	20.670120
116.022117	-2.993900	3.833700	-11.477000	21.745781	0.000908	20.706822
117.022456	-2.996200	3.832700	-11.483000	21.767500	0.000910	20.676399
118.028147	-2.984300	3.833400	-11.438000	21.756326	0.000911	20.693193
119.021974	-2.999100	3.832400	-11.492000	21.751736	0.000910	20.682434
120.025599	-3.008400	3.831900	-11.526000	21.774901	0.000910	20.695188
121.027524	-3.011100	3.831100	-11.535000	21.778119	0.000910	20.678967
122.021793	-2.987300	3.832000	-11.446000	21.788590	0.000912	20.682335
123.023594	-3.003200	3.830600	-11.503000	21.792609	0.000912	20.689203
124.023597	-2.987700	3.831400	-11.446000	21.819997	0.000912	20.675362
125.023570	-2.978200	3.832100	-11.412000	21.812449	0.000913	20.692940
126.028265	-3.004400	3.830500	-11.507000	21.814786	0.000912	20.699072
127.025378	-3.000200	3.831000	-11.493000	21.807834	0.000914	20.696856
128.027548	-3.010700	3.830400	-11.531000	21.819131	0.000913	20.694885
129.024100	-2.998000	3.831500	-11.486000	21.834633	0.000914	20.699023
130.024054	-2.994300	3.829900	-11.467000	21.819474	0.000914	20.693807
131.026693	-2.991800	3.829300	-11.455000	21.839525	0.000914	20.700126
132.024799	-2.975000	3.828800	-11.389000	21.828785	0.000915	20.705023
133.025380	-2.993600	3.830200	-11.465000	21.847799	0.000915	20.724057
134.024874	-2.998000	3.829500	-11.479000	21.863415	0.000915	20.711237
135.024642	-2.981300	3.829200	-11.415000	21.882666	0.000914	20.709642
136.025725	-2.995100	3.829500	-11.468000	21.895684	0.000916	20.700861
137.028131	-2.987200	3.828600	-11.436000	21.910018	0.000917	20.693871
138.026406	-2.997100	3.827800	-11.471000	21.893667	0.000918	20.697893
139.030577	-2.997700	3.828400	-11.475000	21.916184	0.000918	20.705259
140.026733	-3.000600	3.826700	-11.481000	21.945577	0.000918	20.715716
141.033257	-3.011100	3.826500	-11.522000	21.934061	0.000919	20.692333
142.032963	-3.001500	3.826100	-11.483000	21.946532	0.000919	20.709085
143.026461	-3.004600	3.827000	-11.497000	21.966426	0.000919	20.708611
144.027017	-3.006300	3.826200	-11.502000	21.947291	0.000919	20.716483
145.029130	-2.993300	3.827600	-11.457000	21.979346	0.000920	20.685980
146.029829	-3.000800	3.826800	-11.482000	21.992061	0.000920	20.702029
147.027638	-2.983200	3.827100	-11.416000	21.985781	0.000920	20.683887
148.031268	-3.012000	3.825700	-11.522000	21.993163	0.000921	20.697916
149.026821	-3.002500	3.825800	-11.484000	21.977557	0.000922	20.714063
150.027998	-3.009100	3.824600	-11.507000	21.996658	0.000922	20.709951
151.027946	-3.003300	3.825100	-11.486000	22.037498	0.000923	20.706263
152.030652	-2.998600	3.824400	-11.466000	22.030793	0.000923	20.710931
153.028059	-3.004100	3.823800	-11.487000	22.036126	0.000922	20.712477
154.031648	-2.988200	3.824800	-11.427000	22.028270	0.000923	20.718363
155.029281	-2.998500	3.824200	-11.465000	22.003623	0.000923	20.724037
156.033593	-3.003900	3.824600	-11.488000	22.029821	0.000924	20.694784
157.036324	-3.007500	3.823700	-11.498000	22.009202	0.000924	20.694057
158.030938	-2.979400	3.824400	-11.393000	22.007339	0.000925	20.712108
159.037251	-2.989600	3.822200	-11.426000	22.024717	0.000926	20.724290
160.031526	-2.971600	3.823800	-11.361000	22.046039	0.000925	20.726194
161.030223	-2.971800	3.823500	-11.362000	22.069419	0.000927	20.723521
162.032385	-2.998700	3.821800	-11.458000	22.065809	0.000927	20.721330
163.032179	-3.017700	3.821300	-11.529000	22.063546	0.000927	20.724281
164.030529	-3.001400	3.820900	-11.465000	22.087056	0.000929	20.717945
165.033912	-3.029000	3.820300	-11.570000	22.130032	0.000927	20.716399
166.031822	-3.007200	3.822200	-11.494000	22.129934	0.000930	20.710137
167.032797	-3.007300	3.820900	-11.489000	22.123826	0.000927	20.689795
168.035485	-2.997400	3.820200	-11.450000	22.125704	0.000930	20.723446
169.034230	-2.999000	3.820700	-11.458000	22.157762	0.000930	20.740843
170.037046	-2.985100	3.821800	-11.407000	22.159582	0.000930	20.717535
171.033909	-3.002200	3.819700	-11.467000	22.182690	0.000931	20.723127
172.037079	-3.014700	3.820800	-11.517000	22.181930	0.000931	20.740859
173.041307	-2.995700	3.820100	-11.443000	22.186217	0.000932	20.729977
174.038678	-3.005000	3.820200	-11.477000	22.198758	0.000931	20.733525
175.036798	-2.987800	3.821400	-11.417000	22.211586	0.000931	20.734041
176.042518	-3.004500	3.819500	-11.475000	22.228471	0.000933	20.726764
177.036459	-2.990600	3.818800	-11.420000	22.239461	0.000933	20.725914
178.037639	-3.002400	3.818900	-11.465000	22.236848	0.000934	20.728513
179.039860	-3.015000	3.818300	-11.511000	22.245347	0.000934	20.724695
180.040130	-3.013300	3.818300	-11.505000	22.248939	0.000935	20.727344
181.043459	-2.999400	3.818600	-11.453000	22.261725	0.000934	20.737776
182.038977	-3.019200	3.817300	-11.524000	22.265987	0.000934	20.733983
183.047802	-3.008100	3.816600	-11.479000	22.255250	0.000936	20.736509
184.037788	-2.994800	3.818000	-11.431000	22.268118	0.000937	20.734219
185.038563	-3.000300	3.816700	-11.450000	22.269236	0.000937	20.720166
186.048784	-2.992700	3.818100	-11.425000	22.280430	0.000936	20.734693
187.045121	-2.985900	3.816600	-11.395000	22.298024	0.000937	20.728128
188.039653	-3.008600	3.815000	-11.476000	22.306327	0.000934	20.742133
189.040582	-3.017700	3.815800	-11.514000	22.317177	0.000941	20.709847
190.049481	-3.003400	3.814900	-11.457000	22.307453	0.000939	20.735200
191.040332	-2.999100	3.816400	-11.444000	22.338387	0.000938	20.745787
192.045723	-3.000800	3.814800	-11.447000	22.333456	0.000940	20.729943
193.040257	-2.995900	3.815700	-11.430000	22.322148	0.000940	20.736164
194.039742	-2.996400	3.814500	-11.429000	22.327472	0.000941	20.733908
195.042185	-3.000900	3.812800	-11.441000	22.327251	0.000942	20.726100
196.049006	-3.001900	3.813600	-11.447000	22.334084	0.000940	20.725830
197.056561	-3.016000	3.814000	-11.501000	22.346600	0.000942	20.727931
198.048672	-2.998200	3.814900	-11.437000	22.342600	0.000943	20.726771
199.049465	-3.008600	3.813800	-11.473000	22.368773	0.000942	20.741601
200.041743	-2.998900	3.812800	-11.433000	22.378643	0.000944	20.735363
201.042086	-2.999700	3.813100	-11.436000	22.377745	0.000943	20.726876
202.048366	-3.002800	3.813100	-11.449000	22.404416	0.000943	20.740309
203.045014	-3.024800	3.811500	-11.527000	22.414008	0.000945	20.749915
204.042617	-3.015900	3.812200	-11.497000	22.410865	0.000946	20.740603
205.045080	-2.996000	3.813100	-11.424000	22.390611	0.000945	20.746399
206.046171	-2.979800	3.812900	-11.361000	22.412245	0.000946	20.756210
207.043507	-3.001300	3.810700	-11.436000	22.422188	0.000948	20.732501
208.048970	-3.001500	3.810800	-11.437000	22.381598	0.000946	20.745434
209.056254	-2.985800	3.812600	-11.383000	22.384112	0.000949	20.759332
210.042543	-3.002000	3.811800	-11.441000	22.404897	0.000947	20.749800
211.042611	-3.004600	3.809500	-11.445000	22.395631	0.000949	20.730563
212.051098	-2.982900	3.811600	-11.368000	22.416359	0.000947	20.740889
213.043317	-2.992400	3.809900	-11.400000	22.426710	0.000948	20.762635
214.045666	-3.022700	3.809100	-11.513000	22.429926	0.000950	20.750682
215.047367	-3.005000	3.808600	-11.444000	22.434432	0.000952	20.750928
216.047875	-3.003400	3.810200	-11.442000	22.453828	0.000953	20.760869
217.056911	-2.989300	3.809100	-11.385000	22.465861	0.000952	20.755375
218.047680	-2.968900	3.809500	-11.309000	22.475909	0.000953	20.750265
219.048994	-3.009300	3.808100	-11.458000	22.468089	0.000952	20.747649
220.049273	-2.986700	3.808300	-11.373000	22.499655	0.000954	20.758874
221.050663	-2.965000	3.810500	-11.297000	22.510447	0.000955	20.766836
222.057288	-2.989300	3.807400	-11.380000	22.518993	0.000954	20.757378
223.060833	-2.992300	3.807000	-11.391000	22.521540	0.000954	20.743806
224.050904	-3.003600	3.807600	-11.435000	22.514601	0.000953	20.748711
225.049682	-3.002800	3.807400	-11.432000	22.503785	0.000955	20.744517
226.054457	-3.005100	3.806100	-11.436000	22.519490	0.000956	20.752659
227.061970	-3.002900	3.806900	-11.431000	22.534068	0.000958	20.749716
228.049037	-2.994300	3.806300	-11.396000	22.538329	0.000956	20.755406
229.058235	-2.981500	3.807800	-11.352000	22.544460	0.000956	20.755382
230.052026	-3.003700	3.805300	-11.429000	22.557267	0.000959	20.763941
231.057451	-3.001800	3.806200	-11.425000	22.566318	0.000958	20.745980
232.052084	-3.003100	3.804700	-11.424000	22.585238	0.000959	20.754498
233.048550	-3.015800	3.805300	-11.475000	22.593384	0.000960	20.746061
234.051661	-3.027100	3.803800	-11.511000	22.595229	0.000961	20.757866
235.049287	-2.997100	3.805100	-11.401000	22.630187	0.000962	20.769647
236.051107	-2.983900	3.807100	-11.358000	22.619560	0.000961	20.760899
237.051805	-2.982600	3.806100	-11.351000	22.607798	0.000962	20.767611
238.057561	-3.016800	3.804900	-11.478000	22.649040	0.000962	20.755339
239.052054	-3.001100	3.803600	-11.414000	22.651334	0.000962	20.777077
240.050501	-2.996500	3.805100	-11.402000	22.674701	0.000966	20.774878
241.052174	-2.985600	3.804800	-11.358000	22.673550	0.000965	20.775622
242.052007	-2.999600	3.803400	-11.409000	22.664385	0.000965	20.777821
243.055665	-2.984600	3.803800	-11.352000	22.704474	0.000964	20.778148
244.052359	-2.997400	3.802800	-11.397000	22.707535	0.000965	20.771731
245.052261	-2.997000	3.802500	-11.394000	22.695227	0.000966	20.763196
246.051994	-2.987200	3.802700	-11.358000	22.720495	0.000967	20.772385
247.052457	-3.010200	3.801400	-11.441000	22.729734	0.000967	20.768363
248.056505	-3.013800	3.801900	-11.457000	22.740327	0.000968	20.782767
249.052477	-3.002300	3.801800	-11.413000	22.757367	0.000967	20.783241
250.059797	-3.022100	3.802300	-11.490000	22.732459	0.000968	20.779628
251.052755	-3.019300	3.801400	-11.476000	22.734198	0.000968	20.802232
252.054012	-2.976500	3.801100	-11.313000	22.715786	0.000968	20.774780
253.055813	-3.021800	3.800600	-11.482000	22.731088	0.000969	20.785841
254.058935	-2.993900	3.800300	-11.376000	22.738328	0.000971	20.782661
255.053413	-2.989800	3.799700	-11.359000	22.754348	0.000970	20.780691
256.057926	-3.019400	3.798900	-11.469000	22.738948	0.000972	20.787550
257.053879	-2.999800	3.800400	-11.400000	22.762362	0.000971	20.778762
258.058342	-2.997600	3.800000	-11.390000	22.757889	0.000973	20.797041
259.056348	-2.994700	3.800500	-11.381000	22.768866	0.000973	20.786700
260.062144	-2.974600	3.799800	-11.302000	22.803142	0.000974	20.794483
261.057301	-3.007800	3.798800	-11.425000	22.814298	0.000973	20.771519
262.055126	-2.983100	3.800200	-11.335000	22.790999	0.000974	20.767620
263.053459	-3.019800	3.796300	-11.463000	22.832105	0.000975	20.801685
264.058903	-2.971400	3.798600	-11.286000	22.810675	0.000975	20.781166
265.053506	-3.005200	3.798700	-11.413000	22.834839	0.000974	20.792096
266.058391	-2.981200	3.798400	-11.322000	22.847439	0.000978	20.788598
267.054922	-2.989100	3.798100	-11.352000	22.836096	0.000975	20.803313
268.056677	-3.008400	3.795700	-11.418000	22.845391	0.000979	20.782753
269.063341	-2.986100	3.797500	-11.339000	22.841972	0.000977	20.783121
270.058531	-3.006600	3.795800	-11.412000	22.823513	0.000977	20.796871
271.054432	-3.025500	3.795100	-11.481000	22.833207	0.000980	20.796626
272.065534	-3.033400	3.794800	-11.509000	22.848541	0.000979	20.805823
