LabVIEW Measurement	
Writer_Version	2
Reader_Version	2
Separator	Tab
Decimal_Separator	.
Multi_Headings	No
X_Columns	One
Time_Pref	Absolute
Operator	admin
Description	Clolumns are: time, Current, Voltage, Power, Battery Temp, and Chamber Temp
Date	2024/08/16
Time	13:06:06.104549407958984375
***End_of_Header***	
	
Channels	6						
Samples	1	1	1	1	1	1	
Date	2024/08/24	2024/08/24	2024/08/24	2024/08/24	2024/08/24	2024/08/24	
Time	09:34:21.2157216072082519531	09:34:21.2220144271850585938	09:34:21.2270464897155761719	09:34:21.2007040977478027344	09:34:21.2007040977478027344	09:34:21.2007040977478027344	
X_Dimension	Time	Time	Time	Time	Time	Time	
X0	0.0000000000000000E+0	0.0000000000000000E+0	0.0000000000000000E+0	0.0000000000000000E+0	0.0000000000000000E+0	0.0000000000000000E+0	
Delta_X	1.000000	1.000000	1.000000	1.000000	1.000000	1.000000	
***End_of_Header***							
X_Value	Untitled	Untitled 1	Untitled 2	Untitled 3	Untitled 4	Untitled 5	Comment
0.000000	-0.005359	4.107600	-0.022095	21.003861	0.000968	20.864950
1.001236	-2.997200	3.952200	-11.844000	20.997895	0.000969	20.885061
2.000629	-3.020100	3.945400	-11.914000	20.987718	0.000968	20.869193
3.001277	-3.029100	3.939000	-11.931000	21.002759	0.000967	20.866693
4.001767	-2.999300	3.935700	-11.804000	20.998695	0.000968	20.876853
5.001397	-3.000600	3.932400	-11.798000	20.988389	0.000965	20.872235
6.001385	-3.007900	3.928200	-11.815000	20.982626	0.000965	20.866471
7.000912	-2.987800	3.926200	-11.729000	21.012191	0.000964	20.849101
8.001354	-3.010300	3.924000	-11.812000	21.006379	0.000963	20.866995
9.001873	-2.981200	3.923000	-11.694000	21.011945	0.000961	20.856441
10.001292	-3.014500	3.919700	-11.814000	21.011224	0.000961	20.857616
11.002235	-3.017700	3.917600	-11.821000	21.003480	0.000961	20.865517
12.002258	-3.005400	3.918000	-11.774000	21.023969	0.000961	20.864673
13.002818	-2.983900	3.917100	-11.687000	21.028986	0.000961	20.851675
14.003003	-3.009000	3.914200	-11.776000	21.027189	0.000958	20.873109
15.001892	-3.001600	3.911900	-11.741000	21.013865	0.000958	20.863577
16.002303	-2.991100	3.911500	-11.698000	21.032354	0.000957	20.855517
17.003002	-3.004600	3.911900	-11.752000	21.019129	0.000956	20.885436
18.003162	-3.013100	3.908500	-11.776000	21.045222	0.000956	20.872180
19.004978	-3.025000	3.906500	-11.816000	21.053933	0.000957	20.853867
20.005053	-3.019500	3.908000	-11.798000	21.022491	0.000956	20.864618
21.007474	-2.989600	3.906900	-11.679000	21.052431	0.000955	20.842408
22.007237	-2.998900	3.904500	-11.708000	21.047340	0.000954	20.851540
23.007356	-2.995000	3.906300	-11.698000	21.047137	0.000952	20.844225
24.007306	-2.969400	3.905100	-11.594000	21.063402	0.000955	20.867131
25.008235	-2.989000	3.903700	-11.668000	21.074730	0.000952	20.864237
26.010057	-2.996100	3.902700	-11.692000	21.057609	0.000951	20.840475
27.009144	-2.997100	3.902700	-11.696000	21.069165	0.000950	20.873369
28.008973	-2.992800	3.900800	-11.674000	21.085923	0.000951	20.855045
29.010765	-3.008600	3.900300	-11.732000	21.089937	0.000951	20.842939
30.009015	-2.985200	3.900300	-11.642000	21.094499	0.000950	20.835175
31.009403	-3.006100	3.899000	-11.720000	21.083750	0.000949	20.837225
32.010620	-3.014500	3.900300	-11.756000	21.079152	0.000950	20.866289
33.009509	-2.984700	3.899000	-11.637000	21.079379	0.000948	20.848025
34.009094	-3.000800	3.898100	-11.697000	21.086336	0.000947	20.829855
35.011863	-2.981100	3.896900	-11.616000	21.108289	0.000948	20.840434
36.009824	-3.004000	3.896600	-11.704000	21.100330	0.000948	20.829153
37.011137	-2.997900	3.895200	-11.677000	21.112605	0.000948	20.837638
38.013960	-3.010900	3.894300	-11.725000	21.117690	0.000944	20.849837
39.011101	-3.007800	3.896000	-11.717000	21.121082	0.000946	20.839006
40.011328	-3.012100	3.894900	-11.730000	21.126721	0.000945	20.849387
41.012275	-3.005400	3.893900	-11.702000	21.112975	0.000942	20.830896
42.012708	-2.988900	3.893800	-11.637000	21.128519	0.000944	20.834116
43.011322	-3.014500	3.892800	-11.734000	21.135051	0.000943	20.844917
44.012104	-3.002000	3.892700	-11.685000	21.134922	0.000943	20.833883
45.011884	-3.008900	3.892400	-11.710000	21.156178	0.000943	20.841395
46.010834	-3.011900	3.892800	-11.724000	21.153759	0.000943	20.835656
47.013233	-3.019100	3.890800	-11.746000	21.166730	0.000940	20.851001
48.012301	-3.006300	3.891000	-11.696000	21.161011	0.000940	20.848126
49.010808	-2.998300	3.890400	-11.663000	21.187758	0.000942	20.840743
50.012443	-3.003200	3.889900	-11.681000	21.176708	0.000941	20.827793
51.011724	-3.004900	3.890400	-11.689000	21.181892	0.000940	20.816383
52.013461	-3.006800	3.889600	-11.694000	21.201326	0.000941	20.823970
53.014515	-2.994300	3.890100	-11.646000	21.182311	0.000942	20.841458
54.012922	-3.005500	3.889600	-11.690000	21.205049	0.000941	20.829117
55.013845	-2.995300	3.888200	-11.646000	21.186355	0.000939	20.822270
56.014779	-2.997800	3.889300	-11.659000	21.204071	0.000939	20.813440
57.014090	-3.009100	3.888700	-11.700000	21.217047	0.000938	20.814092
58.014125	-3.012500	3.887900	-11.710000	21.213926	0.000940	20.820453
59.014528	-2.989100	3.887700	-11.620000	21.220765	0.000939	20.807854
60.013966	-2.997700	3.886100	-11.649000	21.231088	0.000940	20.838569
61.013318	-2.986000	3.886900	-11.606000	21.229943	0.000940	20.822251
62.014875	-3.011900	3.884900	-11.699000	21.231069	0.000938	20.830490
63.014766	-3.003500	3.886200	-11.671000	21.234159	0.000937	20.799443
64.013569	-2.987100	3.887800	-11.613000	21.241718	0.000937	20.821229
65.013741	-2.998600	3.885200	-11.649000	21.248132	0.000937	20.792558
66.016927	-3.009800	3.884800	-11.692000	21.259052	0.000936	20.836673
67.015121	-2.998400	3.884200	-11.645000	21.258332	0.000937	20.819357
68.017428	-3.001600	3.885700	-11.663000	21.256406	0.000938	20.795145
69.015426	-2.998400	3.882500	-11.640000	21.284000	0.000937	20.827491
70.015479	-2.985800	3.884000	-11.596000	21.282350	0.000938	20.819203
71.018951	-3.000300	3.883100	-11.649000	21.270230	0.000938	20.816562
72.016637	-2.990400	3.884400	-11.615000	21.286474	0.000935	20.807208
73.016983	-2.973400	3.884200	-11.549000	21.314510	0.000938	20.821980
74.019305	-2.986500	3.883300	-11.596000	21.310344	0.000938	20.808328
75.016441	-3.004300	3.882700	-11.665000	21.317557	0.000935	20.807484
76.017231	-3.006400	3.882200	-11.671000	21.319028	0.000937	20.808008
77.020695	-3.021600	3.881700	-11.727000	21.341807	0.000936	20.816099
78.018229	-2.986100	3.883500	-11.596000	21.363399	0.000936	20.812571
79.021438	-2.999700	3.882900	-11.646000	21.363676	0.000935	20.800046
80.019666	-2.991400	3.881400	-11.609000	21.369413	0.000938	20.813846
81.019059	-2.989600	3.881300	-11.602000	21.377124	0.000934	20.816345
82.019339	-2.991900	3.882700	-11.616000	21.362328	0.000936	20.789214
83.019535	-2.998900	3.881300	-11.639000	21.377524	0.000936	20.800624
84.019766	-2.992800	3.881000	-11.614000	21.382140	0.000936	20.801924
85.020751	-2.989700	3.881500	-11.603000	21.400808	0.000936	20.801161
86.021283	-2.999200	3.880500	-11.638000	21.389262	0.000934	20.813791
87.020744	-2.975500	3.879800	-11.544000	21.399337	0.000936	20.803483
88.025069	-2.988700	3.881000	-11.599000	21.385126	0.000934	20.799695
89.024257	-3.011200	3.878600	-11.678000	21.429039	0.000936	20.788630
90.022812	-3.004200	3.879000	-11.653000	21.396592	0.000935	20.791253
91.022541	-2.998900	3.879300	-11.633000	21.391878	0.000938	20.809770
92.023912	-3.016900	3.877400	-11.696000	21.411776	0.000936	20.805497
93.022631	-3.008800	3.878700	-11.669000	21.407092	0.000937	20.791327
94.023170	-2.995700	3.877000	-11.613000	21.412195	0.000936	20.807338
95.027208	-3.007400	3.876900	-11.658000	21.416614	0.000936	20.802276
96.024865	-2.990000	3.878500	-11.595000	21.412946	0.000935	20.808564
97.024238	-3.015100	3.876000	-11.685000	21.417907	0.000935	20.781759
98.028109	-3.000700	3.877000	-11.633000	21.445442	0.000935	20.785127
99.023707	-3.013100	3.876300	-11.678000	21.467536	0.000935	20.815769
100.024306	-3.019100	3.876100	-11.702000	21.437602	0.000935	20.803361
101.026693	-3.000600	3.877400	-11.634000	21.467481	0.000935	20.789161
102.024323	-3.001800	3.876700	-11.636000	21.451942	0.000936	20.777406
103.025227	-2.982100	3.877800	-11.564000	21.462416	0.000934	20.799741
104.029261	-3.027600	3.874500	-11.729000	21.478128	0.000936	20.783219
105.024270	-2.986700	3.876600	-11.577000	21.458250	0.000935	20.787511
106.024986	-3.000000	3.875800	-11.627000	21.506431	0.000934	20.780719
107.029107	-3.007200	3.874500	-11.650000	21.477778	0.000934	20.795670
108.025967	-2.981000	3.875000	-11.550000	21.485661	0.000936	20.799291
109.025917	-3.007000	3.874100	-11.648000	21.480467	0.000936	20.793620
110.032448	-3.008000	3.873500	-11.650000	21.481489	0.000936	20.802703
111.029132	-3.005600	3.874400	-11.643000	21.498173	0.000935	20.801853
112.028645	-2.999400	3.873500	-11.616000	21.507749	0.000936	20.795788
113.034999	-2.989400	3.873400	-11.578000	21.503262	0.000935	20.793670
114.030887	-2.988400	3.874900	-11.579000	21.501170	0.000936	20.787308
115.033652	-2.984400	3.874000	-11.560000	21.522518	0.000935	20.793497
116.033905	-3.024400	3.872800	-11.712000	21.530248	0.000936	20.769463
117.031690	-2.969800	3.874600	-11.505000	21.558826	0.000934	20.765343
118.029336	-3.002300	3.871100	-11.621000	21.559448	0.000936	20.774500
119.033235	-3.016100	3.871800	-11.676000	21.564734	0.000935	20.791170
120.031640	-2.984800	3.872500	-11.558000	21.570174	0.000935	20.794242
121.029533	-3.001300	3.871600	-11.619000	21.578826	0.000935	20.745527
122.033097	-3.001500	3.871500	-11.619000	21.583619	0.000935	20.780670
123.032619	-3.010100	3.870700	-11.649000	21.578161	0.000936	20.780424
124.030892	-2.997200	3.871700	-11.604000	21.603440	0.000935	20.770633
125.035061	-2.995000	3.871000	-11.593000	21.609803	0.000937	20.784112
126.032214	-3.004300	3.871100	-11.629000	21.622689	0.000937	20.775671
127.031478	-3.008300	3.869600	-11.639000	21.631765	0.000937	20.791392
128.035414	-3.028200	3.869200	-11.715000	21.615557	0.000938	20.777543
129.033912	-3.001800	3.871100	-11.619000	21.603065	0.000937	20.771680
130.030746	-2.986700	3.871600	-11.563000	21.613810	0.000937	20.780061
131.036924	-2.992600	3.869300	-11.576000	21.630787	0.000936	20.770024
132.036357	-2.995000	3.870400	-11.591000	21.640836	0.000937	20.774864
133.032403	-2.988300	3.869800	-11.562000	21.621188	0.000936	20.762314
134.037807	-3.018200	3.870000	-11.679000	21.665972	0.000938	20.784372
135.035808	-3.004200	3.868600	-11.621000	21.645500	0.000936	20.780480
136.033830	-3.015900	3.869400	-11.670000	21.648392	0.000939	20.773892
137.037517	-3.015700	3.868400	-11.665000	21.657167	0.000939	20.776983
138.036028	-3.013800	3.867900	-11.656000	21.663504	0.000936	20.762462
139.033257	-3.008200	3.869000	-11.638000	21.660527	0.000937	20.741464
140.037498	-2.983200	3.870900	-11.546000	21.675147	0.000938	20.768423
141.039662	-3.010800	3.868000	-11.645000	21.683768	0.000940	20.773732
142.035907	-3.002200	3.868900	-11.615000	21.668040	0.000939	20.767001
143.040903	-3.005000	3.867700	-11.622000	21.700079	0.000940	20.750701
144.040023	-3.010000	3.868400	-11.642000	21.713370	0.000941	20.774434
145.037950	-3.015800	3.866700	-11.660000	21.714440	0.000938	20.768393
146.035698	-2.996200	3.868700	-11.591000	21.726876	0.000940	20.762821
147.036617	-3.018700	3.867800	-11.675000	21.728722	0.000939	20.750443
148.040547	-3.005100	3.867100	-11.620000	21.721117	0.000941	20.750418
149.039104	-3.009700	3.866800	-11.637000	21.739840	0.000939	20.756829
150.039308	-2.995400	3.867400	-11.583000	21.734703	0.000941	20.743152
151.040462	-2.998500	3.867000	-11.594000	21.739465	0.000939	20.767834
152.040438	-3.005500	3.866300	-11.619000	21.739238	0.000941	20.770925
153.041481	-3.014100	3.864200	-11.646000	21.731258	0.000942	20.754878
154.041747	-2.990000	3.866500	-11.560000	21.712079	0.000941	20.747537
155.041114	-3.019700	3.865500	-11.671000	21.739626	0.000941	20.760883
156.042091	-3.007400	3.864700	-11.621000	21.759924	0.000941	20.743264
157.042437	-3.002600	3.865700	-11.607000	21.738624	0.000942	20.749447
158.040994	-3.002400	3.865100	-11.604000	21.770366	0.000942	20.762724
159.041490	-3.011400	3.864400	-11.635000	21.766650	0.000942	20.750470
160.041245	-3.013700	3.865000	-11.647000	21.765998	0.000942	20.766887
161.041209	-3.008900	3.865400	-11.629000	21.793199	0.000942	20.762817
162.041853	-2.994500	3.864000	-11.569000	21.772704	0.000943	20.738985
163.041467	-3.005900	3.864700	-11.616000	21.791777	0.000942	20.759972
164.042637	-3.021000	3.862000	-11.666000	21.818326	0.000943	20.745292
165.043708	-2.994200	3.864800	-11.571000	21.805905	0.000945	20.742343
166.042934	-3.005800	3.864500	-11.616000	21.830065	0.000947	20.754197
167.043515	-2.999800	3.864000	-11.591000	21.841656	0.000944	20.733555
168.042008	-3.002300	3.861900	-11.593000	21.853795	0.000945	20.758508
169.042627	-3.009000	3.862900	-11.623000	21.872431	0.000945	20.772420
170.042910	-3.001400	3.862500	-11.592000	21.845060	0.000947	20.763516
171.043314	-3.006500	3.862500	-11.612000	21.831445	0.000946	20.746569
172.043656	-3.002200	3.862000	-11.594000	21.847127	0.000947	20.747092
173.043199	-2.998500	3.862400	-11.579000	21.851059	0.000947	20.740596
174.047516	-2.986400	3.862200	-11.533000	21.838460	0.000945	20.754065
175.044029	-2.977100	3.863200	-11.501000	21.838816	0.000946	20.746360
176.045235	-2.996400	3.862200	-11.572000	21.859180	0.000947	20.744932
177.044542	-2.992900	3.861800	-11.557000	21.866231	0.000947	20.753886
178.045479	-3.005000	3.861000	-11.602000	21.859323	0.000949	20.752661
179.047890	-2.986200	3.862400	-11.532000	21.884024	0.000948	20.749885
180.046371	-3.002200	3.862000	-11.593000	21.904344	0.000948	20.737033
181.046453	-3.003500	3.861600	-11.597000	21.897676	0.000949	20.754067
182.046014	-2.984800	3.862600	-11.529000	21.888621	0.000949	20.741209
183.047476	-2.983200	3.860700	-11.516000	21.907766	0.000948	20.735242
184.046582	-3.007700	3.859800	-11.609000	21.902408	0.000950	20.736991
185.047357	-2.998300	3.860200	-11.572000	21.885995	0.000950	20.761815
186.049189	-3.005900	3.860100	-11.602000	21.918250	0.000949	20.762807
187.047954	-3.013700	3.861100	-11.634000	21.933931	0.000950	20.717810
188.048922	-3.002300	3.860200	-11.588000	21.921117	0.000950	20.749081
189.049898	-3.008500	3.858700	-11.608000	21.950677	0.000950	20.739315
190.048443	-3.006200	3.858300	-11.598000	21.950425	0.000951	20.730054
191.049053	-3.000900	3.859700	-11.581000	21.980039	0.000952	20.744051
192.054446	-3.010500	3.857600	-11.612000	21.964304	0.000953	20.749163
193.049328	-2.976000	3.860800	-11.488000	21.929972	0.000952	20.725701
194.049266	-2.993500	3.859100	-11.551000	21.987454	0.000952	20.748154
195.053244	-3.021700	3.859200	-11.658000	21.986512	0.000956	20.744366
196.050741	-3.003000	3.857000	-11.582000	21.997997	0.000953	20.751123
197.050950	-2.994800	3.858900	-11.555000	21.999665	0.000954	20.711538
198.054295	-3.014000	3.857900	-11.626000	21.992511	0.000954	20.727137
199.051068	-3.023100	3.855900	-11.656000	22.016785	0.000957	20.723936
200.050723	-3.001800	3.857400	-11.578000	22.010296	0.000956	20.751106
201.055303	-2.978700	3.857200	-11.489000	22.024560	0.000956	20.725081
202.052168	-3.003400	3.856700	-11.582000	22.021707	0.000956	20.720328
203.059598	-3.001500	3.855500	-11.571000	22.013398	0.000957	20.754686
204.055918	-2.997900	3.855900	-11.559000	22.032743	0.000956	20.741335
205.050344	-2.982200	3.856600	-11.500000	22.014512	0.000957	20.752482
206.051810	-2.993000	3.855800	-11.539000	22.010378	0.000958	20.763517
207.056655	-3.022500	3.854900	-11.649000	22.026299	0.000958	20.742944
208.055458	-2.985300	3.857600	-11.515000	22.042975	0.000959	20.730239
209.053924	-3.018400	3.856200	-11.639000	22.055757	0.000960	20.738769
210.055886	-3.010800	3.855600	-11.608000	22.051489	0.000960	20.725961
211.060738	-3.013400	3.854800	-11.615000	22.053950	0.000961	20.737909
212.056739	-2.979800	3.856000	-11.488000	22.035153	0.000961	20.750859
213.056461	-2.991100	3.856800	-11.534000	22.066506	0.000960	20.722502
214.054126	-3.006200	3.854000	-11.585000	22.075401	0.000963	20.755116
215.054027	-3.027800	3.852900	-11.665000	22.068764	0.000960	20.729505
216.054066	-3.001100	3.854400	-11.566000	22.089180	0.000964	20.726235
217.052965	-2.996300	3.853900	-11.546000	22.119609	0.000960	20.734888
218.054403	-3.012700	3.851900	-11.602000	22.087655	0.000961	20.730398
219.057481	-3.018500	3.852900	-11.629000	22.097946	0.000965	20.727899
220.053937	-2.992200	3.854600	-11.533000	22.078226	0.000964	20.733762
221.055301	-2.995300	3.853100	-11.540000	22.085670	0.000965	20.745956
222.054193	-3.009400	3.852700	-11.593000	22.108078	0.000965	20.735198
223.055926	-3.000600	3.852900	-11.560000	22.121580	0.000966	20.751087
224.053803	-3.003200	3.851400	-11.566000	22.129404	0.000966	20.729996
225.054923	-3.012400	3.851100	-11.599000	22.150119	0.000966	20.729398
226.055441	-3.025800	3.852000	-11.654000	22.134411	0.000966	20.751605
227.055028	-2.999000	3.851000	-11.549000	22.151559	0.000969	20.737004
228.055776	-2.999400	3.851400	-11.551000	22.174034	0.000968	20.743859
229.055983	-2.986200	3.851200	-11.499000	22.156561	0.000969	20.774256
230.056498	-2.987100	3.852800	-11.507000	22.171568	0.000969	20.737122
231.057144	-2.990600	3.851200	-11.516000	22.182553	0.000968	20.743854
232.057336	-3.009900	3.850200	-11.587000	22.210662	0.000969	20.733589
233.058101	-3.020200	3.850000	-11.626000	22.181226	0.000969	20.741102
234.059071	-3.018200	3.850400	-11.619000	22.206246	0.000970	20.740549
235.060351	-3.021600	3.848900	-11.628000	22.204149	0.000971	20.737027
236.059479	-3.001300	3.850000	-11.554000	22.212244	0.000972	20.731855
237.060386	-2.985800	3.848300	-11.490000	22.220664	0.000971	20.734596
238.059186	-3.003800	3.849300	-11.561000	22.240401	0.000971	20.733968
239.060660	-2.979300	3.850100	-11.470000	22.242215	0.000972	20.763287
240.060778	-2.995900	3.849800	-11.532000	22.257867	0.000974	20.753829
241.060040	-3.002500	3.848100	-11.552000	22.265833	0.000975	20.750899
242.061909	-3.013000	3.848100	-11.592000	22.271318	0.000974	20.727941
243.062718	-3.003700	3.848200	-11.558000	22.244814	0.000972	20.752138
244.061853	-3.007300	3.847900	-11.571000	22.241271	0.000973	20.740530
245.062812	-3.002800	3.848900	-11.557000	22.255473	0.000976	20.745741
246.062634	-3.000800	3.848600	-11.548000	22.248947	0.000975	20.732568
247.063466	-2.975200	3.849200	-11.451000	22.267558	0.000975	20.747884
248.064345	-2.994100	3.847900	-11.519000	22.275899	0.000975	20.734424
249.063880	-2.994000	3.848400	-11.521000	22.291323	0.000976	20.727108
250.066123	-3.002800	3.846800	-11.550000	22.282252	0.000977	20.746001
251.065488	-2.989500	3.848000	-11.502000	22.295130	0.000975	20.734240
252.064798	-3.011500	3.846700	-11.583000	22.317455	0.000977	20.750431
253.066418	-3.005300	3.844500	-11.552000	22.309079	0.000979	20.763382
254.070792	-3.008700	3.845500	-11.567000	22.344533	0.000979	20.753838
255.064485	-3.002000	3.846600	-11.547000	22.352080	0.000980	20.747644
256.068322	-3.010000	3.847100	-11.579000	22.358353	0.000982	20.766729
257.070329	-2.995800	3.846100	-11.521000	22.379858	0.000980	20.755546
258.066857	-2.999200	3.846700	-11.535000	22.319219	0.000981	20.768793
259.068499	-3.017300	3.844200	-11.598000	22.307005	0.000979	20.761305
260.070481	-2.994300	3.844500	-11.510000	22.315978	0.000980	20.745633
261.066373	-2.987500	3.846100	-11.489000	22.318937	0.000983	20.750492
262.068100	-2.978600	3.845300	-11.453000	22.344797	0.000982	20.749361
263.069515	-3.008200	3.843300	-11.560000	22.333132	0.000985	20.754749
264.069357	-3.013900	3.843200	-11.581000	22.350296	0.000984	20.770989
265.069519	-3.005700	3.842300	-11.548000	22.333472	0.000983	20.771685
266.070000	-2.978300	3.844900	-11.451000	22.341442	0.000984	20.741733
267.067345	-2.994200	3.844000	-11.508000	22.346350	0.000984	20.764666
268.070730	-2.985000	3.844100	-11.474000	22.330921	0.000984	20.762019
269.069939	-2.985500	3.845100	-11.479000	22.349506	0.000986	20.741273
270.068622	-2.990600	3.841700	-11.487000	22.341131	0.000988	20.760862
271.069625	-2.991600	3.843000	-11.495000	22.333924	0.000988	20.751749
272.070370	-2.988100	3.841700	-11.478000	22.336888	0.000987	20.752347
