LabVIEW Measurement	
Writer_Version	2
Reader_Version	2
Separator	Tab
Decimal_Separator	.
Multi_Headings	No
X_Columns	One
Time_Pref	Absolute
Operator	admin
Description	Clolumns are: time, Current, Voltage, Power, Battery Temp, and Chamber Temp
Date	2024/08/16
Time	13:06:06.104549407958984375
***End_of_Header***	
	
Channels	6						
Samples	1	1	1	1	1	1	
Date	2024/09/13	2024/09/13	2024/09/13	2024/09/13	2024/09/13	2024/09/13	
Time	06:34:28.3930382728576660156	06:34:28.4000382423400878907	06:34:28.4060382843017578125	06:34:28.3652167320251464844	06:34:28.3652167320251464844	06:34:28.3652167320251464844	
X_Dimension	Time	Time	Time	Time	Time	Time	
X0	0.0000000000000000E+0	0.0000000000000000E+0	0.0000000000000000E+0	0.0000000000000000E+0	0.0000000000000000E+0	0.0000000000000000E+0	
Delta_X	1.000000	1.000000	1.000000	1.000000	1.000000	1.000000	
***End_of_Header***							
X_Value	Untitled	Untitled 1	Untitled 2	Untitled 3	Untitled 4	Untitled 5	Comment
0.000000	0.000635	4.091800	0.002464	21.013460	0.000917	20.762179
0.989435	-3.026600	3.913400	-11.844000	21.016902	0.000917	20.753767
1.997752	-3.004400	3.908700	-11.742000	21.023163	0.000915	20.738692
2.992136	-3.001100	3.903600	-11.714000	21.027608	0.000917	20.738870
3.990429	-2.990600	3.899200	-11.660000	21.031554	0.000914	20.764155
4.993321	-2.999600	3.896400	-11.686000	21.036418	0.000911	20.755743
5.996045	-3.005800	3.893800	-11.703000	21.036399	0.000913	20.755250
6.994408	-3.011700	3.890200	-11.715000	21.036898	0.000911	20.752430
7.993430	-3.003700	3.888000	-11.677000	21.037723	0.000911	20.771273
8.993464	-2.996000	3.887400	-11.645000	21.041220	0.000912	20.758175
9.999997	-2.998900	3.883900	-11.647000	21.043313	0.000911	20.767382
10.995705	-3.000900	3.882300	-11.649000	21.048953	0.000909	20.751211
11.990510	-3.000500	3.881600	-11.646000	21.063974	0.000908	20.761969
12.993336	-2.988800	3.880800	-11.597000	21.068874	0.000908	20.765447
13.995022	-2.981000	3.878600	-11.560000	21.067033	0.000908	20.739897
14.996487	-2.981700	3.879700	-11.567000	21.041736	0.000906	20.741147
15.993471	-3.005500	3.875700	-11.647000	21.051845	0.000905	20.743672
17.011346	-3.005000	3.874300	-11.641000	21.055465	0.000905	20.752983
18.010799	-3.001500	3.874200	-11.628000	21.064977	0.000906	20.736892
19.005064	-2.997400	3.872400	-11.606000	21.088709	0.000902	20.755889
20.000173	-3.001100	3.872100	-11.620000	21.064662	0.000905	20.741319
21.001523	-2.995900	3.872000	-11.598000	21.073774	0.000904	20.746165
21.995440	-3.016000	3.869700	-11.670000	21.076538	0.000901	20.743240
22.994454	-3.005100	3.868600	-11.623000	21.098897	0.000902	20.745691
23.994792	-2.999200	3.869000	-11.604000	21.108889	0.000902	20.742408
25.000911	-3.001000	3.867600	-11.606000	21.093369	0.000901	20.730203
25.995501	-2.988600	3.868300	-11.560000	21.114583	0.000902	20.756640
26.993432	-3.009500	3.865500	-11.632000	21.123897	0.000901	20.737032
28.004696	-2.983300	3.865400	-11.530000	21.133525	0.000902	20.734335
28.998451	-2.993200	3.864200	-11.566000	21.132835	0.000901	20.736016
29.995832	-3.003000	3.863900	-11.602000	21.134356	0.000899	20.757926
31.000065	-3.012000	3.864800	-11.639000	21.133734	0.000901	20.733595
32.013511	-2.994500	3.864000	-11.569000	21.145492	0.000902	20.741564
32.997039	-3.027800	3.862900	-11.695000	21.153679	0.000900	20.743116
34.010503	-3.012900	3.860500	-11.630000	21.169968	0.000900	20.745185
34.998418	-2.987300	3.863500	-11.540000	21.174941	0.000900	20.733090
36.010369	-2.995600	3.861300	-11.565000	21.186588	0.000898	20.736680
37.004680	-3.011300	3.859600	-11.622000	21.200531	0.000899	20.746835
38.007126	-3.019200	3.860400	-11.654000	21.188712	0.000899	20.722208
39.004522	-3.021600	3.859600	-11.661000	21.223411	0.000898	20.760715
40.004894	-2.999300	3.859200	-11.574000	21.190608	0.000900	20.738331
40.999987	-3.008000	3.858100	-11.603000	21.209493	0.000898	20.732566
42.016433	-2.969300	3.859400	-11.459000	21.202205	0.000899	20.745191
43.019754	-3.008900	3.855700	-11.601000	21.233236	0.000899	20.744464
44.003300	-3.022200	3.855700	-11.650000	21.231943	0.000898	20.728946
45.008616	-2.993800	3.857300	-11.547000	21.230090	0.000898	20.737998
46.001408	-2.981300	3.856100	-11.495000	21.234227	0.000899	20.726015
47.004976	-3.013900	3.854400	-11.615000	21.236203	0.000896	20.721353
48.012430	-3.019100	3.854400	-11.636000	21.254638	0.000897	20.722726
49.020792	-2.981200	3.855300	-11.493000	21.276514	0.000897	20.726119
50.006954	-2.999900	3.853400	-11.558000	21.267146	0.000899	20.728127
51.023043	-2.999100	3.854000	-11.556000	21.287533	0.000896	20.721020
52.015658	-2.997800	3.853000	-11.548000	21.302521	0.000896	20.732696
53.005101	-3.011700	3.851500	-11.597000	21.317914	0.000897	20.733398
54.006394	-3.006500	3.853600	-11.585000	21.294340	0.000897	20.727831
55.009860	-3.010600	3.851900	-11.596000	21.317779	0.000897	20.716193
56.012958	-2.988500	3.853500	-11.515000	21.330699	0.000897	20.734335
57.016150	-3.007800	3.851800	-11.585000	21.348388	0.000898	20.738282
58.010409	-3.006400	3.851000	-11.576000	21.339907	0.000896	20.746392
59.010599	-2.990400	3.851300	-11.515000	21.344547	0.000895	20.731120
60.016617	-3.010900	3.851100	-11.594000	21.344843	0.000895	20.724303
61.007936	-3.020000	3.850100	-11.625000	21.361209	0.000895	20.710330
62.010674	-2.978600	3.850800	-11.469000	21.385428	0.000896	20.697576
63.011359	-3.009200	3.850000	-11.583000	21.372829	0.000895	20.727173
64.010625	-2.989200	3.849100	-11.504000	21.357540	0.000896	20.714721
65.015068	-3.002900	3.849700	-11.560000	21.365369	0.000894	20.726822
66.011328	-2.962800	3.850400	-11.406000	21.390290	0.000895	20.713822
67.021042	-3.016900	3.848100	-11.608000	21.406354	0.000895	20.715195
68.014931	-3.003700	3.848500	-11.557000	21.400599	0.000895	20.690943
69.017807	-3.009200	3.847700	-11.577000	21.412791	0.000897	20.696504
70.010215	-2.985600	3.847900	-11.487000	21.406938	0.000898	20.702028
71.011299	-3.005300	3.846600	-11.560000	21.405165	0.000897	20.721119
72.013456	-2.987300	3.846200	-11.489000	21.430516	0.000896	20.717559
73.022190	-3.010300	3.846600	-11.578000	21.426177	0.000896	20.715114
74.017803	-3.005500	3.847900	-11.563000	21.441766	0.000896	20.721229
75.009473	-3.003400	3.846100	-11.550000	21.442670	0.000896	20.702219
76.010461	-3.005600	3.846000	-11.556000	21.469325	0.000897	20.736003
77.010117	-3.012600	3.846600	-11.588000	21.482827	0.000897	20.701147
78.016084	-2.991500	3.844700	-11.501000	21.486169	0.000896	20.713975
79.009362	-2.984100	3.845500	-11.474000	21.503530	0.000897	20.709535
80.009187	-2.998800	3.846100	-11.533000	21.501886	0.000896	20.726858
81.016927	-3.007300	3.844500	-11.559000	21.497178	0.000896	20.721672
82.014235	-2.983800	3.844200	-11.468000	21.527081	0.000898	20.710815
83.014208	-3.004200	3.843800	-11.547000	21.500766	0.000898	20.716253
84.029424	-2.994300	3.843400	-11.506000	21.541204	0.000897	20.724948
85.015154	-3.001200	3.842900	-11.532000	21.535893	0.000895	20.704934
86.023940	-3.005200	3.841700	-11.543000	21.551585	0.000897	20.702144
87.016311	-3.011400	3.841500	-11.567000	21.548515	0.000897	20.706658
88.015690	-2.977200	3.844600	-11.445000	21.550367	0.000899	20.717521
89.014278	-2.988900	3.841500	-11.481000	21.559044	0.000897	20.706763
90.014618	-2.998200	3.840800	-11.514000	21.587597	0.000898	20.706412
91.025104	-2.998400	3.841600	-11.518000	21.593141	0.000900	20.702476
92.017241	-3.005700	3.843200	-11.550000	21.577234	0.000898	20.697463
93.014740	-2.978800	3.841500	-11.442000	21.600925	0.000897	20.713112
94.021541	-3.007000	3.841700	-11.552000	21.609829	0.000897	20.699262
95.031467	-3.001300	3.840900	-11.526000	21.601676	0.000897	20.706750
96.020810	-3.005100	3.839700	-11.539000	21.611177	0.000900	20.707723
97.029491	-3.015600	3.838800	-11.575000	21.621404	0.000901	20.732184
98.026331	-3.006200	3.838800	-11.539000	21.605946	0.000899	20.705334
99.030180	-3.001200	3.840700	-11.524000	21.601030	0.000899	20.690455
100.023992	-3.001600	3.840600	-11.526000	21.589916	0.000897	20.701146
101.019005	-2.994700	3.840600	-11.500000	21.619447	0.000899	20.719319
102.021457	-3.015100	3.838700	-11.571000	21.651691	0.000901	20.698479
103.018371	-3.003400	3.839300	-11.530000	21.674285	0.000900	20.702599
104.027577	-2.985200	3.838000	-11.454000	21.660447	0.000900	20.695862
105.021384	-3.003600	3.837300	-11.524000	21.658859	0.000901	20.705179
106.022758	-3.023600	3.836100	-11.597000	21.692326	0.000901	20.707852
107.035023	-3.006900	3.838600	-11.540000	21.690652	0.000900	20.720877
108.025513	-3.012100	3.837600	-11.558000	21.703924	0.000901	20.701915
109.020615	-2.992300	3.838000	-11.483000	21.692209	0.000900	20.709157
110.029959	-3.009300	3.836800	-11.545000	21.718242	0.000903	20.708658
111.026752	-3.010700	3.835400	-11.546000	21.693612	0.000901	20.689223
112.030558	-2.991300	3.836000	-11.472000	21.749794	0.000902	20.701354
113.028956	-3.015900	3.835600	-11.566000	21.748046	0.000904	20.691070
114.028266	-2.971800	3.838200	-11.406000	21.729047	0.000904	20.701927
115.023330	-3.007500	3.835900	-11.535000	21.742718	0.000902	20.688582
116.026419	-2.974800	3.835900	-11.410000	21.763471	0.000904	20.689912
117.027672	-2.981400	3.836400	-11.437000	21.744496	0.000905	20.698897
118.038633	-2.974500	3.836200	-11.409000	21.759133	0.000904	20.696003
119.027562	-2.981800	3.836000	-11.437000	21.758684	0.000904	20.690337
120.024500	-2.975500	3.834900	-11.410000	21.786568	0.000904	20.701176
121.033152	-3.028900	3.834300	-11.612000	21.770011	0.000906	20.701200
122.025555	-2.973900	3.835600	-11.405000	21.759644	0.000904	20.705049
123.030679	-3.002500	3.834000	-11.510000	21.795803	0.000906	20.702832
124.039188	-3.006300	3.834300	-11.527000	21.789989	0.000905	20.705548
125.043163	-2.974400	3.834400	-11.403000	21.816149	0.000907	20.694746
126.035244	-2.977300	3.834000	-11.413000	21.814260	0.000906	20.719884
127.036629	-2.987500	3.833500	-11.450000	21.821360	0.000907	20.699488
128.026999	-2.985200	3.834000	-11.445000	21.820019	0.000909	20.706207
129.035536	-3.015500	3.832000	-11.555000	21.841589	0.000907	20.696027
130.039436	-2.985400	3.833500	-11.444000	21.871359	0.000908	20.701643
131.037112	-2.994700	3.832000	-11.474000	21.868246	0.000907	20.705640
132.030479	-3.025400	3.829700	-11.584000	21.870885	0.000910	20.702592
133.032693	-2.979900	3.830900	-11.414000	21.898188	0.000908	20.706687
134.042055	-2.977700	3.832500	-11.410000	21.915813	0.000910	20.715795
135.033066	-2.994800	3.831500	-11.473000	21.913900	0.000908	20.693015
136.035580	-3.007300	3.830400	-11.517000	21.916115	0.000910	20.693810
137.038230	-3.030200	3.830700	-11.606000	21.912627	0.000911	20.706915
138.035245	-2.990900	3.831100	-11.458000	21.908019	0.000910	20.704199
139.037323	-2.999100	3.830200	-11.486000	21.940180	0.000911	20.705572
140.037430	-2.990100	3.830200	-11.451000	21.926191	0.000912	20.709113
141.036827	-3.032000	3.829000	-11.608000	21.929433	0.000911	20.719471
142.048784	-3.005300	3.828800	-11.506000	21.942850	0.000910	20.721522
143.036799	-3.005400	3.828700	-11.505000	21.957510	0.000911	20.710591
144.036586	-2.989300	3.830900	-11.450000	21.975103	0.000911	20.708762
145.055095	-3.000000	3.827700	-11.480000	21.966503	0.000915	20.721966
146.041422	-2.994000	3.827700	-11.459000	21.970200	0.000913	20.709544
147.039227	-2.995400	3.828800	-11.468000	21.968927	0.000913	20.702105
148.046575	-2.988900	3.828300	-11.441000	21.986674	0.000914	20.708017
149.050463	-3.002600	3.828300	-11.494000	21.983555	0.000917	20.706317
150.038843	-2.990500	3.827900	-11.445000	21.989418	0.000914	20.696538
151.044947	-3.004800	3.827400	-11.500000	21.978997	0.000915	20.717876
152.039310	-2.991800	3.827700	-11.451000	22.016687	0.000916	20.702973
153.045872	-2.985800	3.827700	-11.428000	22.019234	0.000914	20.709316
154.049031	-2.991600	3.827000	-11.448000	22.029777	0.000917	20.719872
155.040920	-2.996900	3.827000	-11.468000	22.029703	0.000917	20.714582
156.040385	-3.020500	3.825700	-11.554000	22.023269	0.000918	20.710037
157.048045	-2.987800	3.827300	-11.434000	22.033418	0.000917	20.692221
158.039979	-3.011600	3.824200	-11.515000	22.030250	0.000918	20.710388
159.048145	-2.996900	3.825800	-11.465000	22.039379	0.000920	20.710517
160.053131	-2.994700	3.825600	-11.456000	22.047302	0.000920	20.729830
161.050527	-2.977700	3.824500	-11.387000	22.052616	0.000919	20.708122
162.054738	-3.013200	3.825500	-11.526000	22.074649	0.000920	20.709316
163.053665	-3.014200	3.824000	-11.525000	22.055581	0.000920	20.714884
164.054249	-2.990800	3.825500	-11.440000	22.060545	0.000921	20.717956
165.048549	-3.011300	3.824200	-11.513000	22.068744	0.000921	20.715733
166.054895	-2.999800	3.825400	-11.474000	22.073130	0.000922	20.718702
167.043425	-3.011900	3.822600	-11.512000	22.070565	0.000923	20.720875
168.045801	-3.007700	3.823600	-11.500000	22.077073	0.000921	20.716485
169.044458	-2.981500	3.823100	-11.398000	22.113246	0.000923	20.717612
170.050665	-3.008900	3.823300	-11.503000	22.134731	0.000924	20.716361
171.051969	-3.024700	3.821600	-11.557000	22.112951	0.000924	20.716842
172.046931	-3.008600	3.822400	-11.499000	22.142240	0.000923	20.730519
173.064631	-2.999000	3.821700	-11.459000	22.152727	0.000923	20.707826
174.046370	-2.996600	3.823100	-11.456000	22.142597	0.000924	20.692941
175.050833	-2.991600	3.822200	-11.434000	22.184439	0.000925	20.744320
176.063346	-3.010700	3.822400	-11.507000	22.200252	0.000924	20.722692
177.049327	-2.995300	3.821000	-11.444000	22.203241	0.000926	20.729004
178.049933	-2.986400	3.821600	-11.411000	22.209151	0.000927	20.734922
179.052165	-2.982900	3.821300	-11.398000	22.211119	0.000928	20.713658
180.062162	-2.991900	3.820300	-11.427000	22.212368	0.000926	20.726763
181.049747	-3.001700	3.820800	-11.469000	22.202004	0.000926	20.740095
182.051665	-3.023000	3.819000	-11.544000	22.197589	0.000929	20.716706
183.058663	-3.008700	3.820300	-11.493000	22.227208	0.000929	20.725026
184.049300	-3.012700	3.819000	-11.505000	22.234004	0.000930	20.717605
185.056021	-3.000500	3.819400	-11.459000	22.250290	0.000932	20.714471
186.060153	-2.992900	3.820000	-11.432000	22.229275	0.000929	20.747010
187.050860	-3.022500	3.818100	-11.539000	22.244207	0.000931	20.724977
188.055134	-2.986800	3.818600	-11.404000	22.243604	0.000930	20.732908
189.068261	-2.995400	3.819300	-11.439000	22.248918	0.000932	20.739177
190.054823	-3.035300	3.817600	-11.586000	22.266292	0.000933	20.739030
191.056233	-3.022300	3.818200	-11.539000	22.295848	0.000932	20.752029
192.066865	-2.985000	3.817600	-11.394000	22.302637	0.000932	20.737490
193.057549	-2.999100	3.817900	-11.449000	22.299624	0.000934	20.740163
194.064810	-3.012100	3.817100	-11.496000	22.312108	0.000935	20.728955
195.058660	-3.010600	3.818300	-11.494000	22.349448	0.000934	20.739793
196.059623	-3.017900	3.816700	-11.517000	22.346896	0.000935	20.744824
197.062747	-2.998000	3.817400	-11.444000	22.354602	0.000935	20.740686
198.055199	-2.977100	3.818500	-11.367000	22.367485	0.000936	20.736043
199.061407	-3.004500	3.815000	-11.461000	22.368930	0.000938	20.746973
200.055769	-2.999300	3.817200	-11.448000	22.369551	0.000936	20.734319
201.053394	-2.988500	3.817000	-11.406000	22.388423	0.000935	20.752269
202.067293	-3.000300	3.814900	-11.445000	22.366821	0.000937	20.751025
203.065042	-2.996400	3.815000	-11.430000	22.345138	0.000939	20.751124
204.059218	-2.997000	3.815400	-11.434000	22.354110	0.000937	20.745409
205.063234	-3.016000	3.815100	-11.506000	22.381499	0.000940	20.746284
206.059084	-2.992600	3.815200	-11.416000	22.401755	0.000941	20.745231
207.057810	-2.995200	3.814200	-11.423000	22.401159	0.000939	20.725666
208.063195	-3.015300	3.813800	-11.499000	22.427477	0.000941	20.746807
209.067296	-2.983700	3.815600	-11.382000	22.435797	0.000940	20.748501
210.065321	-2.991700	3.814500	-11.411000	22.454317	0.000940	20.727218
211.058935	-2.965500	3.815500	-11.313000	22.435495	0.000942	20.750096
212.061860	-3.009500	3.812700	-11.473000	22.445561	0.000942	20.765866
213.064244	-2.986200	3.814200	-11.388000	22.454188	0.000943	20.748901
214.066983	-2.994300	3.812400	-11.415000	22.454114	0.000942	20.739344
215.067695	-2.997300	3.813600	-11.429000	22.491493	0.000943	20.775830
216.062826	-2.989500	3.813600	-11.400000	22.454041	0.000945	20.732631
217.060002	-2.989500	3.813100	-11.397000	22.480432	0.000944	20.756691
218.069681	-3.003400	3.813600	-11.453000	22.466080	0.000945	20.764604
219.074025	-3.017400	3.812500	-11.503000	22.501331	0.000944	20.755810
220.067595	-2.980800	3.812500	-11.364000	22.496400	0.000946	20.762252
221.066618	-2.969100	3.813000	-11.320000	22.521794	0.000946	20.758286
222.066185	-2.999000	3.812800	-11.433000	22.506724	0.000946	20.762159
223.065227	-3.012900	3.811800	-11.483000	22.513721	0.000948	20.762529
224.067517	-2.986300	3.810300	-11.378000	22.542059	0.000947	20.771944
225.063646	-2.989400	3.810600	-11.390000	22.525145	0.000949	20.761642
226.068922	-2.997000	3.809800	-11.418000	22.549056	0.000948	20.741019
227.060131	-2.983400	3.809900	-11.366000	22.566653	0.000949	20.759117
228.067127	-2.974200	3.810000	-11.331000	22.512067	0.000950	20.763243
229.074689	-3.018800	3.809400	-11.498000	22.535093	0.000950	20.747897
230.065111	-2.988200	3.808500	-11.379000	22.541420	0.000950	20.764665
231.074302	-3.021800	3.808800	-11.508000	22.559066	0.000953	20.759579
232.068918	-2.999500	3.810300	-11.427000	22.577554	0.000951	20.764819
233.066491	-3.018300	3.808000	-11.493000	22.593453	0.000952	20.763200
234.075026	-3.021000	3.808200	-11.503000	22.589094	0.000952	20.756463
235.073880	-2.991300	3.808600	-11.390000	22.619724	0.000954	20.768650
236.073487	-3.001000	3.806600	-11.422000	22.632450	0.000954	20.765275
237.066541	-2.997800	3.808800	-11.417000	22.619367	0.000953	20.759758
238.066443	-3.024100	3.807800	-11.513000	22.607834	0.000955	20.761956
239.061888	-3.008400	3.806100	-11.449000	22.625749	0.000956	20.759985
240.075567	-3.026000	3.806300	-11.517000	22.637289	0.000955	20.765380
241.063660	-2.967600	3.806600	-11.296000	22.653704	0.000957	20.742466
242.065890	-2.997800	3.805800	-11.408000	22.669749	0.000956	20.756167
243.062799	-3.006500	3.806600	-11.443000	22.680041	0.000958	20.787339
244.068383	-2.998000	3.806100	-11.410000	22.667536	0.000958	20.751580
245.069120	-3.001900	3.805300	-11.421000	22.669971	0.000960	20.774407
246.065241	-2.969700	3.805700	-11.301000	22.679967	0.000958	20.776834
247.061995	-2.986200	3.806500	-11.365000	22.675756	0.000960	20.783521
248.074614	-3.009700	3.804900	-11.450000	22.682653	0.000959	20.770041
249.063999	-2.986600	3.804100	-11.361000	22.689533	0.000961	20.765552
250.072746	-2.992400	3.805000	-11.385000	22.718900	0.000960	20.768416
251.074690	-3.004600	3.804300	-11.428000	22.703703	0.000963	20.788281
252.070803	-2.989800	3.805000	-11.375000	22.736266	0.000963	20.787234
253.072800	-3.002400	3.803600	-11.419000	22.727094	0.000961	20.765244
254.071430	-3.001900	3.803500	-11.417000	22.738873	0.000963	20.776095
255.077423	-2.993100	3.804300	-11.386000	22.736555	0.000962	20.788472
256.083438	-3.000400	3.802100	-11.406000	22.718217	0.000964	20.785276
257.076885	-3.018900	3.802300	-11.478000	22.748481	0.000964	20.773866
258.070774	-3.006100	3.803000	-11.431000	22.766271	0.000965	20.779833
259.078582	-3.014000	3.801800	-11.459000	22.767986	0.000964	20.783921
260.071516	-3.008500	3.801500	-11.436000	22.768380	0.000966	20.785738
261.072859	-2.986700	3.803200	-11.359000	22.798740	0.000966	20.791022
262.076131	-2.986500	3.802600	-11.356000	22.790602	0.000966	20.792826
263.080309	-2.997300	3.803100	-11.398000	22.788075	0.000967	20.784605
264.085114	-2.997800	3.801300	-11.394000	22.818792	0.000968	20.781711
265.082059	-3.020300	3.801300	-11.480000	22.826961	0.000969	20.790843
266.092938	-3.005800	3.800100	-11.422000	22.819511	0.000969	20.799501
267.077568	-3.004400	3.801000	-11.419000	22.839962	0.000969	20.792013
268.089253	-3.021800	3.798700	-11.478000	22.847387	0.000969	20.796607
269.077054	-3.007600	3.799500	-11.427000	22.879762	0.000970	20.812919
270.072854	-2.989400	3.800600	-11.361000	22.865815	0.000971	20.797998
271.075272	-2.999800	3.799900	-11.398000	22.878539	0.000971	20.772338
272.081110	-2.995200	3.798600	-11.376000	22.873535	0.000972	20.792456
