LabVIEW Measurement	
Writer_Version	2
Reader_Version	2
Separator	Tab
Decimal_Separator	.
Multi_Headings	No
X_Columns	One
Time_Pref	Absolute
Operator	admin
Description	Clolumns are: time, Current, Voltage, Power, Battery Temp, and Chamber Temp
Date	2024/08/16
Time	13:06:06.104549407958984375
***End_of_Header***	
	
Channels	6						
Samples	1	1	1	1	1	1	
Date	2024/09/04	2024/09/04	2024/09/04	2024/09/04	2024/09/04	2024/09/04	
Time	13:13:12.97104644775390625	13:13:12.9775385856628417969	13:13:12.9835376739501953125	13:13:12.9552526473999023438	13:13:12.9552526473999023438	13:13:12.9552526473999023438	
X_Dimension	Time	Time	Time	Time	Time	Time	
X0	0.0000000000000000E+0	0.0000000000000000E+0	0.0000000000000000E+0	0.0000000000000000E+0	0.0000000000000000E+0	0.0000000000000000E+0	
Delta_X	1.000000	1.000000	1.000000	1.000000	1.000000	1.000000	
***End_of_Header***							
X_Value	Untitled	Untitled 1	Untitled 2	Untitled 3	Untitled 4	Untitled 5	Comment
0.000000	0.026351	4.100300	0.107960	20.974973	0.000930	20.863085
1.004348	-3.015300	3.931500	-11.853000	20.992288	0.000928	20.845315
2.002258	-2.998300	3.923800	-11.764000	20.983973	0.000928	20.851698
3.003161	-2.991000	3.919300	-11.721000	20.989687	0.000929	20.856464
4.004143	-3.008100	3.913900	-11.772000	20.985668	0.000925	20.853393
5.001742	-3.006000	3.910800	-11.755000	20.987865	0.000927	20.848004
5.999218	-2.996800	3.909700	-11.714000	20.979331	0.000924	20.838995
7.004980	-2.998200	3.907600	-11.714000	20.983071	0.000923	20.829459
8.001473	-3.027700	3.903600	-11.817000	20.982395	0.000922	20.832576
8.998003	-2.964400	3.904400	-11.573000	20.991901	0.000923	20.852515
10.010206	-3.031300	3.899500	-11.820000	20.995591	0.000922	20.851464
11.003598	-3.004200	3.899000	-11.712000	20.979571	0.000922	20.829752
12.001135	-3.024100	3.896600	-11.783000	20.999606	0.000920	20.843626
13.007154	-2.999500	3.895500	-11.683000	21.004223	0.000920	20.823589
14.004935	-3.019800	3.895200	-11.762000	20.996634	0.000917	20.829749
15.002846	-3.006700	3.891300	-11.699000	21.032663	0.000920	20.845869
16.004248	-3.004000	3.892100	-11.691000	21.010782	0.000918	20.832519
17.004270	-2.989600	3.891300	-11.632000	21.012497	0.000917	20.826174
18.007138	-3.005100	3.890400	-11.689000	21.033933	0.000917	20.834338
19.005784	-2.976500	3.889700	-11.576000	21.041295	0.000917	20.821787
20.006081	-2.993400	3.889000	-11.640000	21.024798	0.000913	20.842270
21.003887	-2.996200	3.888200	-11.649000	21.054589	0.000915	20.833662
22.007653	-3.006700	3.887900	-11.688000	21.040771	0.000913	20.831221
23.007935	-2.999900	3.885800	-11.655000	21.055619	0.000913	20.829002
24.005562	-3.001400	3.885300	-11.660000	21.048331	0.000912	20.827403
25.005861	-3.022900	3.882900	-11.736000	21.040920	0.000911	20.840378
26.007317	-3.000800	3.883500	-11.651000	21.060756	0.000911	20.812803
27.008873	-2.989000	3.884100	-11.608000	21.066770	0.000909	20.843948
28.015042	-3.000600	3.882900	-11.649000	21.063253	0.000910	20.839483
29.007522	-2.998600	3.882700	-11.641000	21.073757	0.000908	20.840979
30.007305	-3.001400	3.881000	-11.647000	21.083390	0.000910	20.825959
31.009890	-3.006600	3.880400	-11.665000	21.094515	0.000908	20.833768
32.006336	-3.007800	3.878300	-11.663000	21.095970	0.000909	20.836171
33.007426	-3.011500	3.880600	-11.685000	21.088435	0.000909	20.828635
34.009546	-2.995600	3.879100	-11.619000	21.096497	0.000907	20.831483
35.008348	-2.991500	3.877100	-11.597000	21.094626	0.000906	20.824396
36.011297	-2.992400	3.877300	-11.602000	21.105557	0.000907	20.815416
37.014521	-2.996500	3.877100	-11.617000	21.116757	0.000907	20.830411
38.017442	-3.012100	3.875500	-11.672000	21.118929	0.000907	20.828317
39.011935	-2.982100	3.877900	-11.563000	21.140536	0.000906	20.815791
40.016288	-3.010600	3.876100	-11.667000	21.152538	0.000907	20.825426
41.013583	-3.021300	3.873800	-11.704000	21.160770	0.000904	20.827496
42.010669	-3.004300	3.874500	-11.638000	21.161569	0.000906	20.805537
43.012376	-3.005000	3.874700	-11.641000	21.177063	0.000906	20.819613
44.012972	-3.016000	3.873000	-11.679000	21.169503	0.000904	20.817741
45.014983	-3.024100	3.873100	-11.712000	21.161322	0.000905	20.810505
46.013552	-3.007900	3.872600	-11.648000	21.189213	0.000905	20.816595
47.012127	-3.004600	3.872000	-11.632000	21.179556	0.000904	20.808831
48.011918	-2.990800	3.872400	-11.581000	21.191781	0.000903	20.819164
49.012390	-2.998000	3.871500	-11.606000	21.207720	0.000904	20.827047
50.012825	-3.004300	3.871600	-11.630000	21.212662	0.000903	20.814447
51.012260	-3.020500	3.871700	-11.694000	21.210391	0.000902	20.805063
52.014251	-3.025800	3.868400	-11.704000	21.205255	0.000904	20.814624
53.013313	-3.016300	3.869900	-11.672000	21.216326	0.000904	20.802940
54.013069	-3.006800	3.868800	-11.631000	21.232095	0.000904	20.801171
55.012466	-3.007500	3.869000	-11.635000	21.242794	0.000902	20.801917
56.014981	-2.984400	3.869700	-11.548000	21.228851	0.000905	20.827323
57.013143	-2.994000	3.869900	-11.584000	21.251754	0.000903	20.801871
58.014199	-2.997700	3.870300	-11.600000	21.265046	0.000902	20.810901
59.015405	-2.987400	3.870100	-11.561000	21.271706	0.000903	20.803814
60.015141	-3.016500	3.868100	-11.667000	21.266224	0.000904	20.815399
61.017325	-2.996800	3.869200	-11.594000	21.281065	0.000903	20.806539
62.015002	-2.977600	3.869000	-11.518000	21.278869	0.000903	20.795806
63.014746	-2.993600	3.866900	-11.575000	21.299224	0.000902	20.803368
64.019695	-2.981300	3.868100	-11.531000	21.296681	0.000902	20.815523
65.019424	-3.001900	3.867200	-11.607000	21.304565	0.000902	20.804444
66.017350	-3.011000	3.867200	-11.643000	21.284886	0.000901	20.792817
67.019178	-3.003800	3.866300	-11.613000	21.310055	0.000901	20.795711
68.021817	-3.014100	3.866700	-11.653000	21.317588	0.000901	20.798507
69.021701	-3.016100	3.865300	-11.657000	21.315272	0.000901	20.799508
70.020075	-2.989500	3.865500	-11.556000	21.331637	0.000901	20.812562
71.021961	-3.008800	3.864000	-11.625000	21.362438	0.000902	20.796911
72.019905	-2.988600	3.865400	-11.551000	21.339422	0.000903	20.791901
73.019526	-3.012500	3.864100	-11.639000	21.345653	0.000901	20.804774
74.024664	-3.003300	3.862600	-11.599000	21.326329	0.000900	20.779750
75.020305	-3.003800	3.863400	-11.604000	21.332391	0.000904	20.793402
76.020989	-2.991400	3.865100	-11.561000	21.351875	0.000902	20.788714
77.026329	-3.020400	3.862400	-11.664000	21.354966	0.000902	20.820255
78.023533	-2.995600	3.863800	-11.573000	21.363303	0.000901	20.786870
79.022198	-3.001600	3.863000	-11.594000	21.392459	0.000901	20.805610
80.024590	-3.005700	3.862900	-11.610000	21.406948	0.000902	20.806830
81.022161	-3.008400	3.862100	-11.617000	21.383834	0.000901	20.785600
82.027055	-2.983500	3.862900	-11.524000	21.403787	0.000900	20.788021
83.025395	-3.019300	3.862500	-11.661000	21.409301	0.000900	20.801124
84.022035	-2.996800	3.861600	-11.571000	21.419401	0.000902	20.795582
85.025670	-2.987700	3.862000	-11.537000	21.427985	0.000900	20.790894
86.025990	-3.001800	3.862000	-11.591000	21.436812	0.000902	20.772699
87.021969	-2.994500	3.860700	-11.560000	21.471784	0.000901	20.801527
88.026319	-2.996600	3.861200	-11.569000	21.451832	0.000900	20.791995
89.025213	-3.000100	3.862300	-11.585000	21.466250	0.000902	20.783188
90.022477	-3.007700	3.860400	-11.610000	21.472555	0.000900	20.798031
91.028736	-3.002600	3.860600	-11.591000	21.482411	0.000901	20.778022
92.024227	-3.003700	3.860200	-11.594000	21.478967	0.000902	20.785006
93.026824	-3.005700	3.859100	-11.599000	21.511837	0.000905	20.799404
94.025328	-2.999700	3.859400	-11.575000	21.482436	0.000902	20.790374
95.034274	-2.997900	3.858700	-11.567000	21.506381	0.000900	20.789677
96.026016	-2.994800	3.857800	-11.550000	21.506649	0.000902	20.770031
97.026927	-2.998600	3.858900	-11.571000	21.523617	0.000904	20.793174
98.029405	-3.012000	3.858700	-11.622000	21.529999	0.000903	20.780120
99.026255	-3.001500	3.857700	-11.577000	21.537231	0.000904	20.778821
100.026473	-3.023400	3.858000	-11.663000	21.538776	0.000903	20.788902
101.032054	-3.011800	3.858300	-11.618000	21.539547	0.000902	20.788725
102.027681	-3.013700	3.856600	-11.621000	21.558953	0.000904	20.794868
103.027564	-3.007400	3.856200	-11.596000	21.566383	0.000905	20.774327
104.036135	-2.983600	3.857200	-11.507000	21.557730	0.000904	20.765194
105.033659	-2.997800	3.857000	-11.561000	21.543960	0.000905	20.797883
106.028656	-2.989100	3.856900	-11.527000	21.565661	0.000904	20.784511
107.042335	-2.992000	3.857000	-11.539000	21.576630	0.000906	20.770831
108.027416	-2.992600	3.856500	-11.539000	21.595534	0.000904	20.767936
109.032429	-3.006000	3.855500	-11.588000	21.611743	0.000905	20.755233
110.034617	-2.991200	3.856500	-11.534000	21.609423	0.000907	20.763343
111.036931	-3.003000	3.855500	-11.577000	21.591615	0.000905	20.778240
112.036637	-3.005400	3.854800	-11.583000	21.622810	0.000907	20.769627
113.033385	-2.994900	3.856000	-11.547000	21.627544	0.000905	20.763933
114.034391	-2.999900	3.854800	-11.562000	21.625896	0.000907	20.774613
115.032040	-3.001500	3.855100	-11.570000	21.620634	0.000906	20.760812
116.037651	-2.985700	3.854600	-11.507000	21.631157	0.000906	20.795051
117.036784	-3.015800	3.853500	-11.620000	21.659359	0.000905	20.771590
118.037651	-3.006100	3.853400	-11.583000	21.651972	0.000907	20.757560
119.037010	-2.998200	3.855400	-11.558000	21.655784	0.000907	20.758055
120.040674	-2.987800	3.853100	-11.512000	21.673866	0.000907	20.775203
121.034894	-3.000600	3.853100	-11.560000	21.673063	0.000906	20.770131
122.037745	-2.980600	3.853100	-11.482000	21.669998	0.000908	20.753313
123.040349	-2.976500	3.853900	-11.469000	21.662887	0.000908	20.771327
124.042764	-3.006100	3.851400	-11.576000	21.673331	0.000907	20.781780
125.036650	-3.008000	3.853900	-11.592000	21.678939	0.000908	20.771744
126.036367	-2.993200	3.852600	-11.531000	21.696115	0.000909	20.765700
127.039790	-3.005800	3.852200	-11.577000	21.685592	0.000909	20.766549
128.047721	-3.017200	3.850700	-11.618000	21.719400	0.000908	20.767667
129.040050	-2.985200	3.851100	-11.496000	21.725263	0.000908	20.767370
130.040931	-2.998700	3.850000	-11.544000	21.719524	0.000910	20.765894
131.039145	-2.994000	3.851300	-11.530000	21.748865	0.000910	20.777716
132.042398	-2.977100	3.853600	-11.472000	21.738142	0.000908	20.765561
133.041873	-2.968600	3.852000	-11.434000	21.711603	0.000910	20.769821
134.040376	-2.986600	3.849200	-11.495000	21.739061	0.000910	20.769800
135.038517	-2.992800	3.849900	-11.521000	21.733944	0.000910	20.757092
136.037840	-3.002700	3.850000	-11.559000	21.757806	0.000910	20.758214
137.044523	-2.982700	3.850100	-11.483000	21.766828	0.000910	20.771037
138.041208	-3.016500	3.848400	-11.607000	21.775034	0.000909	20.767871
139.038797	-3.016400	3.849700	-11.611000	21.750222	0.000909	20.779073
140.042198	-3.017700	3.850300	-11.618000	21.802479	0.000911	20.764993
141.040413	-2.994500	3.848200	-11.523000	21.797762	0.000911	20.754108
142.040740	-3.005700	3.849600	-11.570000	21.793004	0.000913	20.764519
143.046235	-3.007000	3.849400	-11.574000	21.792827	0.000910	20.758178
144.039369	-2.999400	3.848300	-11.541000	21.794319	0.000912	20.772473
145.042324	-3.008100	3.848800	-11.576000	21.827208	0.000913	20.768882
146.040978	-2.999100	3.848400	-11.540000	21.802146	0.000911	20.757547
147.040437	-3.013600	3.848400	-11.596000	21.801824	0.000913	20.759596
148.040126	-3.000100	3.846900	-11.539000	21.829524	0.000911	20.752233
149.043550	-2.986000	3.848500	-11.491000	21.841313	0.000914	20.771620
150.042302	-3.015500	3.847800	-11.602000	21.854479	0.000914	20.767728
151.040223	-2.984000	3.847000	-11.478000	21.876715	0.000913	20.750155
152.041415	-2.985300	3.846800	-11.482000	21.869387	0.000916	20.763209
153.041304	-2.990200	3.846400	-11.501000	21.881551	0.000914	20.760212
154.041059	-2.997100	3.846800	-11.527000	21.898654	0.000914	20.774012
155.044248	-2.987000	3.847600	-11.492000	21.902316	0.000916	20.748279
156.041403	-2.995900	3.845700	-11.520000	21.904758	0.000916	20.756889
157.042706	-2.991600	3.846300	-11.506000	21.899774	0.000915	20.773711
158.042332	-2.974100	3.845300	-11.435000	21.907798	0.000916	20.758035
159.041020	-3.005100	3.845300	-11.555000	21.902308	0.000919	20.750168
160.042538	-3.010000	3.844900	-11.571000	21.896426	0.000919	20.728158
161.042123	-2.994100	3.843900	-11.508000	21.899194	0.000917	20.755586
162.046229	-2.997600	3.844200	-11.523000	21.897172	0.000918	20.740285
163.042403	-3.003800	3.844800	-11.547000	21.928036	0.000916	20.766913
164.041668	-3.019400	3.843200	-11.603000	21.925915	0.000917	20.751987
165.044277	-3.017200	3.843200	-11.594000	21.936534	0.000920	20.757875
166.043337	-3.008500	3.843900	-11.563000	21.953084	0.000919	20.754053
167.062439	-2.994600	3.842300	-11.504000	21.970239	0.000918	20.770278
168.043165	-2.997500	3.844100	-11.522000	21.951812	0.000922	20.758943
169.043797	-2.994000	3.842700	-11.504000	21.943236	0.000919	20.758894
170.044300	-3.002900	3.842000	-11.537000	21.947446	0.000920	20.763582
171.048566	-3.001200	3.844200	-11.537000	21.931040	0.000920	20.759488
172.060610	-2.993000	3.842100	-11.497000	21.967159	0.000922	20.764350
173.046889	-3.006500	3.842500	-11.551000	21.992840	0.000922	20.767772
174.046168	-3.010000	3.841800	-11.563000	21.978606	0.000922	20.752099
175.050305	-3.005000	3.841500	-11.542000	22.014250	0.000922	20.756013
176.046666	-2.997100	3.841200	-11.511000	22.002207	0.000922	20.762449
177.048186	-3.000600	3.841400	-11.526000	22.013055	0.000922	20.752446
178.052740	-2.990800	3.841700	-11.489000	22.034588	0.000921	20.755036
179.047798	-2.993300	3.841400	-11.497000	22.056499	0.000924	20.759427
180.049099	-2.983000	3.842000	-11.459000	22.050066	0.000924	20.760100
181.049006	-2.989800	3.840400	-11.480000	22.076222	0.000923	20.757361
182.050570	-2.995200	3.840100	-11.501000	22.046804	0.000926	20.759204
183.049179	-2.992100	3.840500	-11.489000	22.077113	0.000924	20.751140
184.050056	-3.001800	3.840800	-11.528000	22.067372	0.000925	20.757984
185.050481	-2.994600	3.840000	-11.499000	22.064551	0.000926	20.748047
186.051872	-3.006800	3.839700	-11.544000	22.025193	0.000925	20.764597
187.051366	-3.007700	3.839300	-11.547000	22.031598	0.000925	20.748249
188.051218	-2.996300	3.839800	-11.504000	22.067319	0.000927	20.760301
189.055200	-3.003100	3.838000	-11.524000	22.072677	0.000927	20.760924
190.053777	-2.988100	3.838400	-11.469000	22.094340	0.000927	20.772180
191.051374	-3.000800	3.838200	-11.516000	22.120640	0.000925	20.745878
192.057469	-3.013800	3.837600	-11.564000	22.132126	0.000926	20.773026
193.054285	-3.005600	3.837600	-11.533000	22.128136	0.000927	20.773298
194.054049	-3.006000	3.838600	-11.538000	22.128609	0.000929	20.764289
195.057866	-3.003300	3.837300	-11.524000	22.154007	0.000929	20.772173
196.055392	-3.005700	3.837600	-11.534000	22.167193	0.000929	20.764986
197.054578	-2.984900	3.839500	-11.459000	22.172378	0.000930	20.765435
198.058883	-2.987700	3.838400	-11.467000	22.187907	0.000930	20.754430
199.055841	-3.005100	3.836800	-11.528000	22.207197	0.000933	20.757622
200.057423	-3.032500	3.836000	-11.632000	22.188003	0.000931	20.756422
201.064425	-2.997400	3.837300	-11.501000	22.193958	0.000931	20.771394
202.061055	-3.004200	3.836500	-11.525000	22.214074	0.000932	20.752180
203.057022	-3.002100	3.834600	-11.510000	22.199414	0.000932	20.760736
204.063233	-2.994800	3.834800	-11.482000	22.196923	0.000933	20.760612
205.063464	-3.024800	3.834800	-11.598000	22.197820	0.000932	20.762933
206.058743	-2.980100	3.835200	-11.428000	22.188370	0.000931	20.790930
207.068450	-2.995300	3.835000	-11.485000	22.186776	0.000933	20.752823
208.062922	-2.994800	3.834800	-11.483000	22.182188	0.000935	20.764352
209.059261	-2.976100	3.835200	-11.413000	22.175286	0.000935	20.775934
210.065238	-2.985700	3.834800	-11.449000	22.201132	0.000933	20.765775
211.065390	-3.010900	3.832600	-11.539000	22.222298	0.000934	20.764207
212.063312	-2.979000	3.835600	-11.425000	22.227528	0.000937	20.768022
213.062822	-2.997500	3.834400	-11.492000	22.241014	0.000935	20.761610
214.061310	-2.993700	3.833800	-11.476000	22.238770	0.000935	20.765527
215.065098	-2.994600	3.833400	-11.479000	22.237851	0.000935	20.775039
216.064713	-3.007700	3.831400	-11.522000	22.252132	0.000935	20.776535
217.061779	-2.993400	3.831100	-11.467000	22.255941	0.000939	20.770392
218.061409	-3.006200	3.831100	-11.516000	22.277926	0.000939	20.753998
219.060997	-3.000900	3.833000	-11.502000	22.317855	0.000936	20.759367
220.064651	-3.010000	3.831100	-11.529000	22.296398	0.000938	20.766805
221.065699	-3.019900	3.831900	-11.571000	22.294355	0.000940	20.771872
222.066395	-2.987600	3.832300	-11.448000	22.298938	0.000941	20.768400
223.066684	-3.002200	3.831400	-11.501000	22.293956	0.000941	20.763411
224.069269	-3.000300	3.832700	-11.498000	22.270081	0.000942	20.767955
225.067838	-2.996900	3.830500	-11.477000	22.316216	0.000940	20.775743
226.068463	-3.010000	3.831300	-11.530000	22.308586	0.000942	20.779957
227.067255	-3.001700	3.831400	-11.500000	22.315714	0.000943	20.765283
228.066400	-3.003500	3.830500	-11.504000	22.323916	0.000943	20.758323
229.066150	-3.005400	3.831800	-11.514000	22.336450	0.000942	20.779409
230.067432	-3.002300	3.830000	-11.498000	22.350708	0.000944	20.770453
231.065787	-2.993200	3.830600	-11.465000	22.359482	0.000945	20.770230
232.068546	-3.003500	3.830000	-11.502000	22.343959	0.000945	20.775549
233.071489	-2.987700	3.830000	-11.442000	22.372041	0.000945	20.770952
234.069788	-2.985700	3.830400	-11.435000	22.406882	0.000946	20.792565
235.071643	-2.995400	3.828200	-11.466000	22.407850	0.000947	20.772197
236.071942	-3.002100	3.828400	-11.493000	22.419715	0.000948	20.771752
237.073777	-3.001600	3.828000	-11.489000	22.404016	0.000949	20.782583
238.070466	-2.999800	3.828600	-11.484000	22.418641	0.000947	20.775892
239.071673	-2.986500	3.828600	-11.434000	22.411790	0.000948	20.793687
240.074433	-2.994800	3.827400	-11.461000	22.444184	0.000951	20.762116
241.076073	-2.985700	3.827200	-11.426000	22.449046	0.000949	20.776943
242.072281	-3.012100	3.826900	-11.526000	22.448304	0.000950	20.773355
243.076923	-3.016700	3.827900	-11.547000	22.438481	0.000951	20.770630
244.076042	-3.013200	3.826800	-11.529000	22.445460	0.000951	20.795163
245.075773	-2.993700	3.828300	-11.460000	22.452809	0.000951	20.773599
246.073100	-3.005100	3.826800	-11.499000	22.471006	0.000952	20.772382
247.076737	-2.990100	3.827300	-11.443000	22.483962	0.000953	20.770185
248.075519	-3.022500	3.825500	-11.561000	22.495922	0.000953	20.789749
249.086176	-3.015100	3.824100	-11.529000	22.512394	0.000954	20.800555
250.077738	-2.999000	3.827000	-11.476000	22.494901	0.000955	20.788252
251.075089	-2.992200	3.825600	-11.446000	22.509649	0.000957	20.782159
252.073922	-2.998200	3.825400	-11.468000	22.519146	0.000956	20.781713
253.074590	-2.996400	3.825900	-11.463000	22.514609	0.000958	20.796136
254.073922	-2.987900	3.824800	-11.427000	22.544609	0.000959	20.799628
255.073681	-2.958400	3.825800	-11.317000	22.524029	0.000958	20.777594
256.074923	-2.978500	3.825600	-11.394000	22.540973	0.000958	20.761848
257.074238	-2.983300	3.824200	-11.406000	22.539722	0.000960	20.750163
258.074548	-2.983800	3.823000	-11.405000	22.550039	0.000957	20.784204
259.076834	-2.990300	3.823100	-11.431000	22.550710	0.000960	20.802894
260.075434	-2.989500	3.823800	-11.430000	22.581931	0.000960	20.784377
261.077980	-3.014300	3.821000	-11.516000	22.563493	0.000963	20.784876
262.077101	-2.981900	3.823700	-11.400000	22.548668	0.000962	20.798478
263.076740	-3.002600	3.823200	-11.478000	22.575703	0.000962	20.804691
264.078395	-2.973000	3.824000	-11.368000	22.566330	0.000964	20.784398
265.078242	-2.989800	3.822500	-11.428000	22.553773	0.000963	20.781780
266.078254	-2.984000	3.821700	-11.403000	22.555388	0.000962	20.800940
267.077507	-3.004800	3.822500	-11.484000	22.544774	0.000963	20.783673
268.087327	-3.016300	3.822200	-11.528000	22.584694	0.000964	20.792360
269.076661	-3.024300	3.819900	-11.550000	22.570936	0.000963	20.786167
270.079025	-3.031200	3.821000	-11.580000	22.585036	0.000965	20.808350
271.078642	-2.980000	3.823200	-11.390000	22.601206	0.000967	20.792303
272.077725	-3.005100	3.821100	-11.481000	22.631108	0.000967	20.779104
