LabVIEW Measurement	
Writer_Version	2
Reader_Version	2
Separator	Tab
Decimal_Separator	.
Multi_Headings	No
X_Columns	One
Time_Pref	Absolute
Operator	admin
Description	Clolumns are: time, Current, Voltage, Power, Battery Temp, and Chamber Temp
Date	2024/08/16
Time	13:06:06.104549407958984375
***End_of_Header***	
	
Channels	6						
Samples	1	1	1	1	1	1	
Date	2024/09/04	2024/09/04	2024/09/04	2024/09/04	2024/09/04	2024/09/04	
Time	05:31:53.9245409965515136719	05:31:53.9324526786804199219	05:31:53.9384493827819824219	05:31:53.9082303047180175782	05:31:53.9082303047180175782	05:31:53.9082303047180175782	
X_Dimension	Time	Time	Time	Time	Time	Time	
X0	0.0000000000000000E+0	0.0000000000000000E+0	0.0000000000000000E+0	0.0000000000000000E+0	0.0000000000000000E+0	0.0000000000000000E+0	
Delta_X	1.000000	1.000000	1.000000	1.000000	1.000000	1.000000	
***End_of_Header***							
X_Value	Untitled	Untitled 1	Untitled 2	Untitled 3	Untitled 4	Untitled 5	Comment
0.000000	0.005639	4.101200	0.023072	21.010748	0.000918	20.768475
0.998100	-2.999600	3.933500	-11.798000	20.988502	0.000917	20.748121
2.000778	-3.036500	3.924600	-11.915000	20.981889	0.000914	20.747197
2.999116	-3.027200	3.919900	-11.864000	21.006150	0.000915	20.749177
4.000008	-2.991600	3.918900	-11.723000	20.981987	0.000915	20.745398
5.002170	-2.996500	3.913900	-11.727000	20.993898	0.000912	20.750199
6.002675	-2.983700	3.910500	-11.666000	21.001385	0.000912	20.743463
7.001832	-3.000900	3.907900	-11.725000	21.010148	0.000912	20.747960
8.001217	-3.011900	3.905500	-11.762000	21.021213	0.000908	20.755233
9.001242	-3.018600	3.903900	-11.784000	21.010891	0.000910	20.737323
10.000868	-2.997200	3.902800	-11.697000	21.001849	0.000910	20.737762
11.003746	-3.005900	3.900300	-11.722000	21.013007	0.000908	20.742758
12.000647	-3.000400	3.899100	-11.698000	21.004034	0.000906	20.721455
13.001844	-3.000700	3.897700	-11.695000	21.008643	0.000907	20.754041
14.004734	-3.000000	3.896900	-11.690000	21.012568	0.000907	20.753225
15.002380	-2.987600	3.895500	-11.637000	21.036818	0.000905	20.743340
16.004762	-2.990800	3.893700	-11.644000	21.022230	0.000904	20.753880
17.005895	-3.013200	3.892900	-11.729000	21.032503	0.000905	20.734756
18.001534	-3.013000	3.891300	-11.724000	21.036173	0.000904	20.739376
19.002362	-3.014500	3.890400	-11.726000	21.038142	0.000905	20.736604
20.004558	-3.003900	3.889600	-11.683000	21.043685	0.000904	20.748786
21.003126	-2.993600	3.889800	-11.643000	21.027190	0.000902	20.721382
22.002210	-3.022400	3.888000	-11.750000	21.053542	0.000901	20.748689
23.005589	-2.992600	3.886900	-11.631000	21.026047	0.000901	20.737783
24.004304	-3.011500	3.885500	-11.700000	21.053859	0.000902	20.741894
25.001673	-3.023200	3.885300	-11.745000	21.053748	0.000899	20.732772
26.004946	-3.004200	3.884800	-11.670000	21.045591	0.000897	20.736468
27.002420	-2.988500	3.884300	-11.607000	21.070946	0.000898	20.734801
28.002346	-2.992100	3.885100	-11.624000	21.059935	0.000898	20.732323
29.003436	-3.016400	3.882000	-11.709000	21.073947	0.000897	20.728794
30.001851	-3.017500	3.882300	-11.714000	21.089810	0.000898	20.730436
31.003860	-3.016300	3.881000	-11.705000	21.100883	0.000899	20.722546
32.004491	-2.986200	3.881800	-11.590000	21.092737	0.000897	20.725778
33.003518	-2.987800	3.881700	-11.597000	21.095484	0.000897	20.747492
34.003878	-3.003400	3.879300	-11.650000	21.097282	0.000897	20.724160
35.004865	-3.008600	3.879100	-11.668000	21.084665	0.000895	20.720548
36.004416	-2.989000	3.880800	-11.599000	21.096115	0.000896	20.731053
37.004932	-3.015500	3.877400	-11.691000	21.099419	0.000895	20.738626
38.005966	-2.991100	3.878500	-11.600000	21.122343	0.000896	20.737848
39.008175	-2.999400	3.879300	-11.634000	21.136769	0.000894	20.727622
40.008410	-3.004200	3.876100	-11.644000	21.126048	0.000896	20.721639
41.009261	-2.985800	3.877400	-11.576000	21.133705	0.000894	20.713651
42.008641	-2.972700	3.878000	-11.528000	21.148145	0.000893	20.743744
43.008940	-3.001800	3.875500	-11.632000	21.166910	0.000893	20.713201
44.009036	-2.998200	3.875700	-11.619000	21.156263	0.000894	20.725310
45.009344	-3.005900	3.874500	-11.646000	21.166143	0.000892	20.720969
46.010289	-2.992400	3.875500	-11.597000	21.182172	0.000893	20.721830
47.011438	-3.013100	3.873400	-11.670000	21.182563	0.000895	20.710366
48.016014	-3.019300	3.873700	-11.695000	21.192189	0.000892	20.734696
49.011981	-3.045600	3.872400	-11.792000	21.195312	0.000892	20.711740
50.012683	-3.006100	3.872700	-11.640000	21.191760	0.000893	20.704868
51.017148	-2.984600	3.872500	-11.557000	21.183291	0.000894	20.719630
52.015443	-3.001900	3.871900	-11.622000	21.185525	0.000891	20.701001
53.014957	-2.996000	3.872500	-11.601000	21.205955	0.000892	20.707688
54.017217	-2.985900	3.872300	-11.561000	21.191432	0.000890	20.722085
55.014704	-3.013300	3.870400	-11.662000	21.202237	0.000892	20.725307
56.012971	-2.991700	3.871600	-11.582000	21.224137	0.000892	20.677985
57.018331	-2.998600	3.871100	-11.606000	21.226835	0.000891	20.709610
58.015074	-3.002900	3.870300	-11.619000	21.240702	0.000891	20.705938
59.017480	-3.021000	3.870700	-11.693000	21.233944	0.000891	20.711032
60.021301	-3.006700	3.870300	-11.636000	21.262891	0.000890	20.712015
61.018362	-2.993600	3.870400	-11.585000	21.239716	0.000889	20.692148
62.015352	-3.002000	3.868900	-11.614000	21.253837	0.000890	20.731408
63.019875	-3.003100	3.868400	-11.615000	21.281243	0.000890	20.734170
64.021127	-3.006500	3.868200	-11.627000	21.282832	0.000892	20.723431
65.017827	-3.006800	3.868200	-11.629000	21.277584	0.000889	20.736199
66.021648	-3.002800	3.868200	-11.615000	21.289043	0.000888	20.688389
67.020236	-2.994400	3.867500	-11.578000	21.294779	0.000889	20.708828
68.019057	-3.009500	3.867200	-11.636000	21.306554	0.000889	20.696900
69.021463	-3.018300	3.866300	-11.668000	21.326083	0.000888	20.700792
70.020861	-3.003700	3.867100	-11.613000	21.323142	0.000888	20.722981
71.020321	-2.997500	3.866300	-11.588000	21.327031	0.000890	20.706956
72.023328	-3.020000	3.865600	-11.674000	21.314914	0.000891	20.710007
73.031185	-3.014100	3.866200	-11.652000	21.335949	0.000888	20.726785
74.031650	-3.001200	3.864400	-11.595000	21.362186	0.000889	20.716049
75.023905	-3.001400	3.864300	-11.596000	21.367022	0.000890	20.713302
76.024991	-2.986600	3.866100	-11.545000	21.380644	0.000889	20.710335
77.023025	-3.009600	3.864500	-11.629000	21.387558	0.000890	20.688326
78.027920	-3.011500	3.864100	-11.636000	21.381264	0.000888	20.715697
79.025494	-3.018100	3.863500	-11.658000	21.396537	0.000890	20.712486
80.021574	-3.006800	3.863100	-11.615000	21.425216	0.000888	20.704195
81.028569	-2.999800	3.863800	-11.589000	21.406538	0.000889	20.679341
82.026332	-3.013600	3.863200	-11.642000	21.420658	0.000889	20.712437
83.025480	-3.002200	3.863300	-11.597000	21.398639	0.000891	20.700837
84.027471	-2.996800	3.862000	-11.573000	21.421835	0.000889	20.687535
85.025958	-2.998900	3.863100	-11.583000	21.429066	0.000890	20.710418
86.028472	-2.978500	3.863800	-11.507000	21.422978	0.000889	20.694369
87.035904	-3.015800	3.862200	-11.647000	21.433683	0.000891	20.697019
88.028897	-2.979100	3.862600	-11.504000	21.434279	0.000890	20.699512
89.026246	-2.979500	3.863700	-11.511000	21.467402	0.000890	20.691402
90.028172	-2.983800	3.862600	-11.524000	21.453454	0.000890	20.718225
91.030604	-2.993200	3.862200	-11.560000	21.467803	0.000888	20.689432
92.031540	-2.967200	3.861800	-11.457000	21.471256	0.000890	20.685774
93.030198	-2.985100	3.862500	-11.528000	21.474378	0.000889	20.696960
94.030377	-3.002000	3.862000	-11.592000	21.478144	0.000890	20.669432
95.028937	-2.980200	3.860700	-11.505000	21.487451	0.000889	20.689177
96.033881	-2.993400	3.861000	-11.557000	21.486880	0.000889	20.675328
97.032039	-3.004400	3.859800	-11.594000	21.512751	0.000890	20.693630
98.030581	-2.990900	3.859500	-11.542000	21.499542	0.000891	20.692741
99.037373	-2.993800	3.859300	-11.553000	21.522834	0.000892	20.671001
100.031083	-2.986700	3.860700	-11.530000	21.525447	0.000889	20.682151
101.034177	-3.006700	3.860000	-11.605000	21.521427	0.000891	20.680499
102.032417	-3.012800	3.858000	-11.622000	21.522751	0.000890	20.671391
103.031474	-2.994600	3.858700	-11.554000	21.505887	0.000893	20.690555
104.030103	-2.986900	3.857900	-11.522000	21.536492	0.000892	20.721182
105.031561	-2.983400	3.860000	-11.515000	21.536454	0.000892	20.688424
106.031829	-3.008700	3.857200	-11.603000	21.540259	0.000892	20.699819
107.030801	-2.995700	3.857100	-11.553000	21.555070	0.000892	20.699941
108.033499	-2.975600	3.859000	-11.482000	21.554220	0.000893	20.687709
109.034720	-2.989900	3.857600	-11.533000	21.574194	0.000892	20.708173
110.032529	-2.991300	3.858200	-11.540000	21.570257	0.000894	20.686688
111.033288	-2.986400	3.857000	-11.518000	21.592987	0.000894	20.680509
112.033359	-2.996200	3.856800	-11.555000	21.603108	0.000894	20.674990
113.032430	-2.998700	3.857200	-11.566000	21.626447	0.000893	20.682225
114.034308	-3.002500	3.855500	-11.575000	21.620991	0.000893	20.712803
115.032878	-3.017000	3.855100	-11.630000	21.625754	0.000894	20.673469
116.031644	-2.965000	3.857400	-11.436000	21.644208	0.000894	20.684352
117.033111	-2.998400	3.854500	-11.555000	21.605829	0.000895	20.682929
118.036915	-2.989900	3.855500	-11.526000	21.654593	0.000893	20.718455
119.032384	-3.000000	3.855500	-11.566000	21.652966	0.000896	20.689324
120.034642	-2.993100	3.856500	-11.542000	21.640100	0.000894	20.668386
121.035820	-2.991700	3.854800	-11.531000	21.657241	0.000894	20.680798
122.033927	-3.000900	3.854200	-11.564000	21.646490	0.000894	20.697542
123.035606	-3.000500	3.854200	-11.564000	21.664519	0.000895	20.677650
124.035730	-2.989400	3.854900	-11.523000	21.670932	0.000894	20.661781
125.034889	-3.008400	3.853000	-11.591000	21.676120	0.000897	20.667922
126.039496	-3.015800	3.854000	-11.622000	21.678781	0.000896	20.681492
127.037884	-2.992800	3.854200	-11.532000	21.679036	0.000896	20.662304
128.036832	-3.013200	3.852300	-11.606000	21.710999	0.000896	20.682915
129.040528	-3.010600	3.852300	-11.597000	21.710950	0.000898	20.666269
130.041245	-3.010100	3.851800	-11.591000	21.714266	0.000898	20.673856
131.038406	-2.998000	3.852100	-11.547000	21.716708	0.000896	20.652116
132.043809	-2.998500	3.853000	-11.553000	21.739815	0.000897	20.666708
133.042553	-3.013600	3.851500	-11.605000	21.760431	0.000898	20.686869
134.039372	-2.990700	3.852500	-11.519000	21.748016	0.000897	20.669700
135.041549	-2.985000	3.851800	-11.496000	21.743351	0.000897	20.660289
136.040677	-2.979600	3.851400	-11.474000	21.744323	0.000898	20.690188
137.040249	-2.983800	3.851900	-11.491000	21.727902	0.000899	20.655732
138.040874	-2.990900	3.851100	-11.516000	21.748347	0.000899	20.670506
139.041420	-2.996400	3.850400	-11.536000	21.737001	0.000901	20.674798
140.040573	-2.980800	3.850600	-11.476000	21.765412	0.000898	20.668619
141.041058	-3.012000	3.849600	-11.594000	21.755868	0.000900	20.666653
142.041524	-2.995400	3.850900	-11.534000	21.781705	0.000901	20.677340
143.041178	-2.988000	3.850400	-11.504000	21.789783	0.000901	20.674993
144.040917	-2.970300	3.851600	-11.439000	21.779897	0.000901	20.666046
145.042325	-3.004000	3.849000	-11.561000	21.806294	0.000902	20.673975
146.050185	-2.982900	3.849200	-11.480000	21.781865	0.000900	20.690304
147.041988	-2.993200	3.848900	-11.519000	21.831597	0.000901	20.681758
148.044760	-2.997400	3.849900	-11.539000	21.818284	0.000903	20.669854
149.043801	-3.003500	3.848600	-11.557000	21.820047	0.000900	20.675886
150.043602	-2.994700	3.849800	-11.528000	21.827832	0.000902	20.658072
151.043658	-2.995300	3.848000	-11.525000	21.820047	0.000901	20.663083
152.043326	-3.000900	3.847100	-11.544000	21.837359	0.000904	20.673299
153.046705	-2.985800	3.848800	-11.491000	21.826244	0.000904	20.661699
154.043302	-3.015800	3.847400	-11.602000	21.839630	0.000903	20.656604
155.043516	-2.981600	3.848900	-11.473000	21.832172	0.000904	20.676169
156.044488	-3.003800	3.846500	-11.553000	21.843713	0.000904	20.661640
157.043137	-2.980500	3.847500	-11.467000	21.850017	0.000906	20.672219
158.044959	-2.988900	3.846300	-11.493000	21.894815	0.000906	20.685291
159.044394	-3.010400	3.845400	-11.574000	21.913240	0.000905	20.666274
160.045459	-2.999200	3.846600	-11.536000	21.919788	0.000904	20.663819
161.047249	-2.992400	3.847300	-11.512000	21.955994	0.000907	20.664499
162.044819	-2.992300	3.845800	-11.506000	21.943887	0.000907	20.662337
163.044766	-2.994900	3.845400	-11.515000	21.951793	0.000906	20.657923
164.045432	-2.993100	3.845400	-11.508000	21.950059	0.000906	20.653341
165.045849	-3.007900	3.844400	-11.562000	21.969480	0.000907	20.667568
166.048458	-2.989900	3.844900	-11.493000	21.959655	0.000906	20.660577
167.045182	-2.990300	3.845500	-11.495000	21.953413	0.000906	20.666658
168.046188	-2.988700	3.845000	-11.490000	21.991175	0.000909	20.648505
169.047075	-2.991500	3.845400	-11.503000	22.007220	0.000908	20.671683
170.046894	-2.967400	3.844600	-11.407000	22.019618	0.000908	20.667024
171.048470	-3.010200	3.842500	-11.566000	21.992878	0.000911	20.652108
172.047971	-3.016400	3.843200	-11.591000	21.988713	0.000909	20.671174
173.045874	-3.005300	3.843700	-11.551000	22.010466	0.000910	20.650748
174.045432	-2.981300	3.844400	-11.460000	21.990802	0.000910	20.662359
175.047445	-3.012600	3.842400	-11.574000	21.985509	0.000912	20.660853
176.046566	-2.986300	3.843700	-11.478000	22.003229	0.000911	20.646348
177.046837	-2.999200	3.842800	-11.524000	22.017028	0.000914	20.668224
178.047189	-3.005500	3.843300	-11.551000	21.991792	0.000912	20.665721
179.047873	-3.003400	3.842400	-11.539000	22.025300	0.000911	20.626239
180.048465	-3.006300	3.841500	-11.546000	21.990239	0.000913	20.615796
181.048704	-2.996300	3.842200	-11.511000	22.011192	0.000915	20.660010
182.047769	-2.993100	3.842700	-11.499000	22.012491	0.000915	20.644713
183.049206	-3.000800	3.840500	-11.523000	22.007939	0.000915	20.653908
184.049809	-2.983600	3.842200	-11.463000	22.037817	0.000915	20.658215
185.048826	-2.994100	3.840800	-11.498000	22.024023	0.000914	20.650568
186.047312	-2.988600	3.840500	-11.476000	22.024521	0.000918	20.661974
187.048553	-3.030800	3.839900	-11.637000	22.057484	0.000918	20.641865
188.049368	-3.009600	3.840900	-11.557000	22.063095	0.000917	20.648431
189.049553	-3.017600	3.839600	-11.585000	22.069545	0.000917	20.632126
190.049285	-3.010300	3.839100	-11.556000	22.053358	0.000916	20.656228
191.048036	-2.993100	3.840500	-11.494000	22.059212	0.000918	20.652605
192.048871	-3.000300	3.840700	-11.521000	22.037766	0.000917	20.651524
193.049314	-3.027300	3.838100	-11.618000	22.053118	0.000920	20.646503
194.049387	-2.983900	3.841200	-11.459000	22.053992	0.000920	20.649750
195.050917	-3.013400	3.839200	-11.568000	22.073352	0.000921	20.670082
196.050685	-3.012100	3.839600	-11.564000	22.076925	0.000920	20.631929
197.050439	-3.001100	3.839100	-11.520000	22.099805	0.000922	20.659106
198.049619	-2.993100	3.838300	-11.487000	22.085743	0.000920	20.645974
199.051593	-2.986000	3.840400	-11.465000	22.117573	0.000921	20.680215
200.051533	-3.006300	3.837700	-11.536000	22.112109	0.000925	20.628271
201.050270	-2.999300	3.837500	-11.508000	22.151672	0.000925	20.655556
202.050256	-3.009800	3.836500	-11.546000	22.147351	0.000924	20.664507
203.051850	-2.989700	3.838000	-11.474000	22.134432	0.000925	20.659158
204.051164	-2.991900	3.837000	-11.480000	22.166904	0.000923	20.646149
205.053124	-2.981700	3.837700	-11.442000	22.167026	0.000925	20.651962
206.054060	-3.007400	3.836000	-11.536000	22.183201	0.000926	20.641128
207.052454	-2.988400	3.836400	-11.463000	22.195006	0.000926	20.640619
208.054557	-3.019200	3.834600	-11.576000	22.195177	0.000928	20.642213
209.054400	-2.983200	3.837000	-11.446000	22.200630	0.000928	20.643406
210.053415	-3.026100	3.835200	-11.605000	22.226374	0.000926	20.654009
211.053333	-3.004100	3.835300	-11.522000	22.228014	0.000927	20.668929
212.053054	-2.993100	3.835900	-11.480000	22.222902	0.000927	20.646265
213.052949	-3.013700	3.834500	-11.554000	22.245087	0.000927	20.667057
214.055048	-3.020400	3.834400	-11.580000	22.230953	0.000928	20.634410
215.054059	-3.008300	3.834100	-11.534000	22.224626	0.000928	20.645146
216.055081	-2.974000	3.835600	-11.406000	22.236660	0.000930	20.644867
217.055500	-3.005900	3.834000	-11.523000	22.261616	0.000931	20.643776
218.055758	-3.005100	3.833900	-11.519000	22.282560	0.000931	20.647203
219.054080	-2.992600	3.835600	-11.476000	22.274558	0.000932	20.654365
220.055898	-3.001600	3.833500	-11.506000	22.275920	0.000931	20.646245
221.054385	-3.028900	3.831400	-11.603000	22.270018	0.000930	20.656932
222.056193	-3.003000	3.832200	-11.507000	22.261265	0.000933	20.649114
223.055140	-3.009900	3.832800	-11.535000	22.273469	0.000933	20.637151
224.055179	-3.012900	3.831600	-11.543000	22.290297	0.000932	20.665858
225.055744	-3.000600	3.832700	-11.499000	22.310541	0.000932	20.629700
226.055140	-2.994800	3.833400	-11.479000	22.313963	0.000934	20.649251
227.054878	-2.992000	3.832200	-11.465000	22.326192	0.000935	20.638735
228.057869	-3.014800	3.831800	-11.551000	22.296544	0.000934	20.660734
229.058870	-3.000100	3.832000	-11.495000	22.338434	0.000935	20.655737
230.057669	-2.998700	3.831100	-11.486000	22.316179	0.000935	20.639614
231.058049	-3.011000	3.830800	-11.534000	22.336906	0.000938	20.674123
232.059402	-3.005300	3.830900	-11.512000	22.333459	0.000936	20.646487
233.057898	-3.000200	3.831100	-11.493000	22.343306	0.000938	20.634534
234.059704	-3.003700	3.831200	-11.507000	22.323613	0.000939	20.634255
235.060507	-2.987300	3.830500	-11.442000	22.316232	0.000938	20.661006
236.060077	-2.989800	3.830200	-11.450000	22.307541	0.000939	20.641397
237.060369	-3.032300	3.828600	-11.609000	22.311246	0.000940	20.662653
238.061231	-3.012000	3.830800	-11.537000	22.278636	0.000940	20.661294
239.061598	-3.018900	3.828100	-11.556000	22.299823	0.000940	20.650739
240.060470	-3.012900	3.828500	-11.533000	22.280398	0.000940	20.642193
241.062397	-3.013700	3.827800	-11.535000	22.288462	0.000942	20.645052
242.061532	-2.999900	3.829200	-11.486000	22.319925	0.000941	20.648107
243.062674	-3.009300	3.828400	-11.520000	22.343928	0.000943	20.656497
244.063836	-2.990900	3.830800	-11.456000	22.352490	0.000941	20.651793
245.064570	-2.980600	3.828100	-11.409000	22.346021	0.000944	20.663335
246.063710	-2.995000	3.827500	-11.462000	22.385869	0.000943	20.650131
247.062809	-3.006400	3.828700	-11.509000	22.408718	0.000944	20.647882
248.063363	-3.010100	3.827500	-11.520000	22.407410	0.000945	20.659375
249.063114	-3.005800	3.826700	-11.502000	22.414087	0.000945	20.658001
250.063574	-2.993600	3.827200	-11.457000	22.439269	0.000946	20.667573
251.066725	-2.982900	3.827100	-11.414000	22.452092	0.000947	20.661921
252.065734	-3.010300	3.827300	-11.520000	22.469697	0.000948	20.659163
253.063556	-2.984900	3.826700	-11.421000	22.475222	0.000944	20.663275
254.065062	-2.967300	3.827200	-11.355000	22.476560	0.000947	20.640429
255.065265	-2.992000	3.825800	-11.446000	22.503937	0.000949	20.655995
256.065330	-2.989100	3.828000	-11.440000	22.490450	0.000947	20.648652
257.065096	-3.014000	3.825100	-11.528000	22.495610	0.000947	20.658087
258.064273	-2.984200	3.827200	-11.420000	22.509852	0.000947	20.655755
259.064984	-2.997900	3.824800	-11.466000	22.509588	0.000949	20.677778
260.065690	-3.019000	3.824200	-11.543000	22.527579	0.000949	20.652645
261.069892	-2.984500	3.825900	-11.418000	22.512111	0.000950	20.657544
262.067735	-2.991900	3.823700	-11.439000	22.546228	0.000949	20.660892
263.066860	-3.011900	3.824200	-11.517000	22.546857	0.000952	20.650142
264.068334	-3.009200	3.824800	-11.508000	22.536710	0.000952	20.653730
265.067572	-3.012200	3.823900	-11.516000	22.534079	0.000950	20.669589
266.068294	-3.001300	3.823800	-11.475000	22.563592	0.000953	20.668327
267.069271	-3.001100	3.822900	-11.471000	22.549463	0.000951	20.648958
268.067505	-3.014200	3.822600	-11.522000	22.534884	0.000953	20.674189
269.067805	-3.004100	3.823300	-11.485000	22.563763	0.000954	20.662808
270.068991	-3.016200	3.822200	-11.528000	22.552962	0.000956	20.661947
271.068112	-2.993600	3.823000	-11.442000	22.566667	0.000955	20.645799
272.069419	-3.015300	3.821500	-11.522000	22.573890	0.000957	20.665838
