LabVIEW Measurement	
Writer_Version	2
Reader_Version	2
Separator	Tab
Decimal_Separator	.
Multi_Headings	No
X_Columns	One
Time_Pref	Absolute
Operator	admin
Description	Clolumns are: time, Current, Voltage, Power, Battery Temp, and Chamber Temp
Date	2024/08/16
Time	13:06:06.104549407958984375
***End_of_Header***	
	
Channels	6						
Samples	1	1	1	1	1	1	
Date	2024/09/11	2024/09/11	2024/09/11	2024/09/11	2024/09/11	2024/09/11	
Time	20:34:02.4588785171508789063	20:34:02.469085693359375	20:34:02.4755215644836425782	20:34:02.4416041374206542969	20:34:02.4416041374206542969	20:34:02.4416041374206542969	
X_Dimension	Time	Time	Time	Time	Time	Time	
X0	0.0000000000000000E+0	0.0000000000000000E+0	0.0000000000000000E+0	0.0000000000000000E+0	0.0000000000000000E+0	0.0000000000000000E+0	
Delta_X	1.000000	1.000000	1.000000	1.000000	1.000000	1.000000	
***End_of_Header***							
X_Value	Untitled	Untitled 1	Untitled 2	Untitled 3	Untitled 4	Untitled 5	Comment
0.000000	0.026848	4.093900	0.109840	21.001079	0.000916	20.805271
1.011146	-2.974600	3.918300	-11.653000	20.988629	0.000917	20.806096
1.999679	-3.049400	3.907900	-11.916000	21.002451	0.000915	20.796687
3.003029	-2.992200	3.904500	-11.682000	21.015375	0.000913	20.813880
4.001235	-3.019900	3.900100	-11.777000	21.013231	0.000915	20.787554
5.002544	-2.994300	3.899100	-11.675000	21.012283	0.000913	20.817900
6.000286	-3.011800	3.894900	-11.730000	21.015747	0.000911	20.787225
7.000916	-3.011700	3.892500	-11.722000	21.015874	0.000909	20.800155
8.000961	-3.008200	3.890400	-11.702000	21.015326	0.000910	20.792494
9.001028	-2.984200	3.889700	-11.607000	21.020013	0.000910	20.817571
10.002809	-3.009300	3.886500	-11.694000	21.023233	0.000909	20.818420
11.003388	-2.998500	3.884300	-11.646000	21.020862	0.000907	20.780014
12.003544	-2.993000	3.884500	-11.625000	21.032013	0.000906	20.814400
13.005140	-2.999400	3.882600	-11.644000	21.026947	0.000906	20.784203
14.013659	-2.998400	3.881600	-11.637000	21.027871	0.000905	20.788920
15.002905	-2.995500	3.879400	-11.620000	21.036704	0.000904	20.801075
16.005759	-3.026100	3.877700	-11.731000	21.055242	0.000906	20.788796
17.003245	-2.999500	3.877700	-11.629000	21.054219	0.000902	20.785403
18.004948	-3.014900	3.874400	-11.680000	21.069962	0.000903	20.796408
19.004086	-3.000000	3.875200	-11.625000	21.074826	0.000902	20.799850
20.005492	-3.006700	3.872400	-11.641000	21.070712	0.000902	20.784830
21.011448	-2.999000	3.874000	-11.617000	21.083256	0.000903	20.803067
22.004918	-3.002400	3.872700	-11.624000	21.086677	0.000901	20.816920
23.005928	-2.993700	3.871100	-11.588000	21.060085	0.000900	20.804546
24.005636	-2.986800	3.870500	-11.559000	21.090020	0.000899	20.801298
25.005838	-2.995700	3.870000	-11.592000	21.103817	0.000899	20.799925
26.007545	-3.007900	3.868800	-11.636000	21.082613	0.000901	20.782034
27.010945	-2.990800	3.868700	-11.569000	21.118734	0.000900	20.814846
28.005164	-2.994900	3.867700	-11.582000	21.126644	0.000899	20.798103
29.010759	-2.988200	3.868000	-11.557000	21.108430	0.000900	20.800746
30.008188	-2.993000	3.866400	-11.569000	21.098351	0.000898	20.799199
31.007343	-2.983100	3.866600	-11.534000	21.112671	0.000900	20.778910
32.007712	-2.985900	3.866300	-11.543000	21.127889	0.000898	20.775640
33.003362	-3.005700	3.864700	-11.615000	21.127613	0.000899	20.785322
34.003621	-2.980700	3.864600	-11.518000	21.144827	0.000898	20.777410
35.009132	-3.022900	3.863800	-11.678000	21.131208	0.000899	20.787020
36.008653	-2.977700	3.864100	-11.506000	21.151088	0.000896	20.774190
37.006260	-2.997900	3.861800	-11.577000	21.155580	0.000896	20.810926
38.010026	-2.998900	3.862400	-11.582000	21.178304	0.000897	20.767749
39.013880	-2.979500	3.861700	-11.504000	21.196666	0.000895	20.770471
40.017410	-2.988400	3.860900	-11.537000	21.181898	0.000897	20.774664
41.010898	-2.978500	3.861400	-11.499000	21.194172	0.000893	20.779830
42.014716	-3.016500	3.858900	-11.639000	21.184965	0.000896	20.772042
43.007403	-3.000700	3.859700	-11.580000	21.184891	0.000894	20.790934
44.012149	-3.021100	3.859300	-11.658000	21.201328	0.000895	20.766125
45.014712	-3.018600	3.857900	-11.644000	21.202478	0.000896	20.780078
46.011774	-3.003400	3.858800	-11.589000	21.224677	0.000896	20.775732
47.011160	-3.005200	3.858400	-11.595000	21.225452	0.000896	20.768921
48.018112	-2.997000	3.858500	-11.563000	21.233036	0.000895	20.760860
49.012089	-3.008800	3.857900	-11.607000	21.267112	0.000893	20.782622
50.013721	-3.000500	3.857400	-11.573000	21.275565	0.000898	20.769742
51.017493	-3.005400	3.856700	-11.589000	21.256161	0.000894	20.779727
52.016520	-2.988200	3.856600	-11.523000	21.259946	0.000897	20.775453
53.015926	-2.986500	3.857000	-11.518000	21.275438	0.000895	20.771511
54.023342	-3.007000	3.855100	-11.591000	21.295344	0.000893	20.784788
55.017180	-2.967200	3.857800	-11.446000	21.301258	0.000894	20.756090
56.019647	-2.983800	3.855500	-11.504000	21.311784	0.000895	20.782268
57.018894	-2.993600	3.854100	-11.535000	21.308441	0.000895	20.776079
58.014287	-2.992700	3.854200	-11.534000	21.336679	0.000893	20.763553
59.019689	-3.000800	3.853500	-11.562000	21.321238	0.000893	20.782718
60.021750	-2.986600	3.853500	-11.507000	21.339445	0.000891	20.784812
61.023247	-3.016300	3.853000	-11.620000	21.335558	0.000893	20.771914
62.020215	-2.987300	3.854100	-11.512000	21.359753	0.000893	20.764353
63.021114	-2.978200	3.853100	-11.474000	21.354816	0.000894	20.759413
64.019447	-3.020000	3.851800	-11.632000	21.360454	0.000893	20.786390
65.019162	-2.993400	3.852600	-11.532000	21.361154	0.000894	20.762909
66.023994	-3.007300	3.851900	-11.582000	21.357967	0.000893	20.780109
67.019053	-2.988200	3.851300	-11.508000	21.371583	0.000893	20.769076
68.022184	-3.002800	3.850800	-11.563000	21.379994	0.000894	20.754731
69.021726	-2.992300	3.851400	-11.523000	21.379191	0.000894	20.763885
70.022003	-3.023800	3.851600	-11.645000	21.400471	0.000894	20.769529
71.023165	-3.018300	3.850400	-11.621000	21.409578	0.000897	20.751613
72.020630	-3.025400	3.850900	-11.650000	21.430708	0.000894	20.776075
73.028652	-2.991200	3.850400	-11.517000	21.409383	0.000894	20.764695
74.027442	-2.985000	3.850300	-11.492000	21.442435	0.000894	20.761730
75.022717	-3.016100	3.848600	-11.607000	21.416371	0.000890	20.775955
76.023219	-3.014400	3.848800	-11.600000	21.426549	0.000893	20.751525
77.025363	-3.005100	3.848100	-11.562000	21.444907	0.000894	20.775109
78.025738	-3.019200	3.846500	-11.612000	21.447627	0.000895	20.782572
79.025923	-3.012400	3.848700	-11.591000	21.456234	0.000896	20.743294
80.022721	-3.034400	3.846000	-11.667000	21.443142	0.000894	20.762912
81.024567	-3.028900	3.846700	-11.650000	21.458657	0.000893	20.765633
82.028546	-3.004600	3.846800	-11.557000	21.478988	0.000894	20.755155
83.030241	-2.993500	3.847000	-11.515000	21.488217	0.000894	20.743527
84.029118	-2.991700	3.847400	-11.510000	21.490187	0.000895	20.763991
85.027956	-2.985000	3.848000	-11.485000	21.506426	0.000894	20.770282
86.028267	-3.000500	3.845500	-11.538000	21.504527	0.000896	20.755580
87.027184	-2.991300	3.846000	-11.503000	21.507101	0.000896	20.756733
88.031384	-2.996500	3.845700	-11.523000	21.525886	0.000897	20.748502
89.033086	-2.997900	3.845100	-11.526000	21.547828	0.000893	20.780417
90.032150	-3.028200	3.843800	-11.639000	21.537952	0.000895	20.775275
91.028352	-2.990400	3.844900	-11.496000	21.536406	0.000896	20.781790
92.027952	-2.996500	3.844500	-11.520000	21.576064	0.000895	20.756514
93.033786	-3.008400	3.843400	-11.560000	21.552344	0.000896	20.768340
94.030004	-3.008100	3.844500	-11.564000	21.570127	0.000896	20.769065
95.032401	-2.993900	3.843600	-11.505000	21.594915	0.000892	20.740763
96.035665	-3.012000	3.843600	-11.576000	21.600700	0.000896	20.762200
97.029202	-3.019900	3.842700	-11.603000	21.593617	0.000896	20.761751
98.028014	-3.000400	3.844100	-11.533000	21.575587	0.000896	20.746553
99.043545	-3.017100	3.842300	-11.589000	21.591647	0.000896	20.774479
100.032843	-2.988600	3.842000	-11.480000	21.611997	0.000895	20.766868
101.031947	-2.999200	3.843100	-11.523000	21.619076	0.000895	20.751666
102.032612	-2.996100	3.842800	-11.510000	21.604342	0.000896	20.757310
103.029434	-3.014100	3.841300	-11.577000	21.619476	0.000897	20.749695
104.030779	-3.014400	3.842500	-11.582000	21.613019	0.000897	20.755088
105.031270	-3.006100	3.841500	-11.546000	21.646136	0.000897	20.756935
106.030146	-2.993300	3.842000	-11.498000	21.647632	0.000896	20.768389
107.031422	-2.980300	3.839500	-11.442000	21.642721	0.000897	20.763948
108.036749	-2.994900	3.841200	-11.503000	21.657709	0.000897	20.752395
109.035401	-2.985000	3.841100	-11.464000	21.652175	0.000897	20.747805
110.033933	-2.975600	3.839800	-11.424000	21.659233	0.000897	20.776206
111.041626	-2.997200	3.839300	-11.506000	21.668437	0.000899	20.748431
112.034041	-3.007300	3.838800	-11.544000	21.672598	0.000897	20.750700
113.030727	-3.002400	3.837600	-11.521000	21.705219	0.000898	20.747784
114.036242	-2.995400	3.838600	-11.496000	21.714991	0.000901	20.765151
115.035041	-3.001300	3.838900	-11.521000	21.714843	0.000898	20.763106
116.032149	-3.004300	3.839100	-11.533000	21.735268	0.000900	20.769797
117.032137	-3.001800	3.840400	-11.526000	21.757213	0.000901	20.769001
118.030218	-2.998100	3.839000	-11.509000	21.754968	0.000902	20.774341
119.031365	-3.001300	3.839100	-11.521000	21.772872	0.000904	20.738205
120.038869	-3.010300	3.838100	-11.553000	21.780728	0.000902	20.759819
121.038704	-2.980900	3.838900	-11.442000	21.792320	0.000905	20.781853
122.037117	-3.022000	3.836100	-11.592000	21.800827	0.000904	20.772823
123.037169	-3.007100	3.836900	-11.537000	21.789729	0.000903	20.758870
124.035724	-3.000100	3.837600	-11.511000	21.806858	0.000903	20.764635
125.040566	-2.994200	3.836000	-11.484000	21.842289	0.000904	20.771648
126.036424	-2.982300	3.836500	-11.440000	21.828484	0.000904	20.767313
127.038627	-3.020300	3.836200	-11.584000	21.816736	0.000904	20.775470
128.037173	-3.014100	3.835400	-11.559000	21.796443	0.000906	20.763693
129.043379	-2.998700	3.834700	-11.498000	21.820681	0.000906	20.763771
130.038496	-2.999600	3.835400	-11.503000	21.824273	0.000904	20.770211
131.039478	-3.006600	3.835900	-11.531000	21.823424	0.000905	20.757034
132.043221	-2.989800	3.835900	-11.465000	21.834221	0.000906	20.795816
133.040030	-2.989100	3.834900	-11.462000	21.850105	0.000906	20.763350
134.042270	-3.003300	3.835000	-11.516000	21.881098	0.000905	20.778725
135.041567	-2.997300	3.835300	-11.494000	21.868785	0.000907	20.779677
136.040067	-2.996100	3.833400	-11.484000	21.869510	0.000906	20.772342
137.040233	-2.975000	3.835500	-11.410000	21.882000	0.000909	20.781050
138.039934	-3.001800	3.832600	-11.503000	21.874597	0.000909	20.777433
139.044491	-2.994800	3.834100	-11.482000	21.869612	0.000907	20.783350
140.039909	-2.990200	3.833500	-11.461000	21.886917	0.000908	20.765109
141.042413	-2.989100	3.832800	-11.456000	21.884124	0.000910	20.779383
142.043839	-2.991100	3.833200	-11.465000	21.917336	0.000911	20.785126
143.045237	-3.001300	3.832500	-11.500000	21.918436	0.000909	20.770579
144.040777	-2.989500	3.833800	-11.459000	21.909259	0.000910	20.772773
145.040903	-2.949400	3.833800	-11.307000	21.919333	0.000910	20.779539
146.043539	-3.005600	3.833000	-11.519000	21.919733	0.000911	20.787999
147.043952	-3.005300	3.830700	-11.511000	21.926315	0.000911	20.785579
148.040495	-3.010200	3.832200	-11.534000	21.944340	0.000912	20.790345
149.045501	-3.021900	3.830900	-11.575000	21.943739	0.000911	20.797805
150.042465	-3.026100	3.829200	-11.586000	21.951198	0.000912	20.770183
151.042848	-2.992800	3.830100	-11.461000	21.978321	0.000911	20.777419
152.044445	-2.974600	3.832000	-11.398000	21.977851	0.000912	20.774578
153.045899	-2.970600	3.831800	-11.381000	21.948879	0.000913	20.776871
154.042270	-2.999200	3.830300	-11.486000	21.976652	0.000913	20.784284
155.042516	-3.003300	3.831300	-11.505000	21.978024	0.000913	20.793718
156.043407	-3.010100	3.828800	-11.523000	21.985928	0.000917	20.768439
157.042006	-3.003200	3.828700	-11.497000	22.012806	0.000917	20.767844
158.048938	-3.010200	3.828100	-11.522000	22.028758	0.000914	20.793771
159.044521	-3.001500	3.828300	-11.490000	22.032873	0.000916	20.780346
160.044024	-3.014200	3.826900	-11.534000	22.033350	0.000916	20.784617
161.041512	-3.004000	3.828400	-11.498000	22.045360	0.000916	20.791899
162.047761	-3.021600	3.828200	-11.566000	22.025450	0.000916	20.774812
163.055979	-2.972000	3.828900	-11.379000	22.084527	0.000919	20.778003
164.047705	-3.023700	3.825000	-11.565000	22.074337	0.000919	20.775388
165.049198	-3.038000	3.826700	-11.625000	22.091536	0.000919	20.778382
166.044553	-2.977900	3.829100	-11.400000	22.084184	0.000919	20.798049
167.046890	-2.997500	3.827500	-11.472000	22.104677	0.000919	20.783477
168.049865	-3.001300	3.826800	-11.484000	22.106996	0.000921	20.784850
169.047594	-3.028000	3.826100	-11.584000	22.111901	0.000921	20.808728
170.053397	-3.002200	3.825700	-11.484000	22.142742	0.000922	20.804043
171.049970	-3.019300	3.825200	-11.547000	22.159739	0.000921	20.795455
172.051041	-2.994400	3.825100	-11.453000	22.156300	0.000924	20.773046
173.055244	-3.001100	3.826200	-11.481000	22.156102	0.000922	20.788021
174.050359	-3.012100	3.825400	-11.520000	22.191222	0.000923	20.784302
175.051751	-3.007000	3.825300	-11.501000	22.178286	0.000924	20.793162
176.051221	-3.015600	3.823800	-11.528000	22.185019	0.000922	20.798481
177.048098	-2.977400	3.825900	-11.390000	22.188560	0.000925	20.781638
178.048951	-2.979600	3.824900	-11.396000	22.179060	0.000925	20.800101
179.052054	-2.985500	3.825400	-11.419000	22.159944	0.000924	20.773849
180.050736	-2.997100	3.823700	-11.458000	22.157382	0.000926	20.801156
181.049676	-2.981700	3.824000	-11.401000	22.163407	0.000924	20.815249
182.051700	-2.999200	3.823600	-11.467000	22.171882	0.000927	20.783432
183.049725	-3.000300	3.823800	-11.471000	22.188808	0.000927	20.788523
184.054661	-3.007200	3.822400	-11.492000	22.176869	0.000927	20.785105
185.056005	-3.003700	3.821200	-11.477000	22.211440	0.000927	20.805020
186.054581	-3.013000	3.821900	-11.514000	22.177594	0.000930	20.801952
187.056074	-2.999000	3.822200	-11.461000	22.204761	0.000930	20.806393
188.049735	-3.002200	3.823400	-11.478000	22.204634	0.000928	20.799627
189.054503	-2.998700	3.823300	-11.463000	22.207475	0.000931	20.801998
190.051221	-3.004100	3.820900	-11.477000	22.240052	0.000929	20.797631
191.048970	-2.988200	3.822600	-11.420000	22.250022	0.000931	20.806191
192.050608	-2.993600	3.821000	-11.438000	22.263129	0.000930	20.802720
193.050339	-2.989900	3.821300	-11.424000	22.263207	0.000931	20.800901
194.052404	-3.009000	3.819700	-11.492000	22.284438	0.000933	20.821686
195.064935	-2.985900	3.820200	-11.406000	22.282594	0.000934	20.806088
196.055245	-3.006600	3.820100	-11.484000	22.309260	0.000933	20.801970
197.051030	-2.987500	3.820800	-11.413000	22.297874	0.000934	20.806690
198.055225	-2.982900	3.819600	-11.392000	22.302256	0.000933	20.803491
199.056828	-3.000300	3.820800	-11.462000	22.320971	0.000936	20.804213
200.058341	-3.000300	3.820100	-11.460000	22.319526	0.000936	20.807507
201.052988	-2.995200	3.818900	-11.438000	22.329918	0.000936	20.810327
202.057082	-2.990500	3.820100	-11.424000	22.346138	0.000935	20.807128
203.054489	-2.978200	3.820600	-11.378000	22.363011	0.000937	20.807903
204.056943	-2.994500	3.819500	-11.435000	22.358449	0.000937	20.809973
205.067242	-3.010100	3.817100	-11.488000	22.348629	0.000936	20.811045
206.058594	-3.007400	3.817900	-11.481000	22.376262	0.000937	20.809793
207.057782	-2.978100	3.819300	-11.373000	22.409453	0.000939	20.809365
208.056135	-2.993000	3.818100	-11.427000	22.404301	0.000938	20.801361
209.064469	-3.005000	3.816900	-11.467000	22.424237	0.000939	20.829859
210.060040	-3.015700	3.817100	-11.510000	22.429692	0.000939	20.821572
211.061216	-2.999400	3.817300	-11.448000	22.413099	0.000940	20.815387
212.059263	-2.985100	3.816700	-11.392000	22.444815	0.000940	20.819173
213.063418	-3.000900	3.816900	-11.453000	22.446186	0.000940	20.832400
214.057794	-3.026600	3.815300	-11.546000	22.466295	0.000941	20.821243
215.057899	-2.996800	3.816600	-11.437000	22.483014	0.000942	20.837038
216.060184	-3.007600	3.815900	-11.476000	22.496221	0.000940	20.809014
217.059961	-2.999000	3.816200	-11.442000	22.500182	0.000944	20.847593
218.059214	-2.985800	3.817000	-11.395000	22.515686	0.000941	20.814283
219.062909	-2.983400	3.816400	-11.384000	22.508033	0.000945	20.825111
220.059520	-2.986200	3.815200	-11.392000	22.524829	0.000944	20.827708
221.059016	-2.998500	3.815300	-11.439000	22.515756	0.000945	20.821940
222.060845	-3.015100	3.814200	-11.499000	22.531359	0.000943	20.834721
223.060505	-2.999400	3.814200	-11.439000	22.523462	0.000946	20.834873
224.063003	-2.986400	3.815300	-11.393000	22.537337	0.000948	20.843552
225.067547	-3.003100	3.813600	-11.451000	22.554203	0.000947	20.842427
226.062905	-2.999800	3.815200	-11.444000	22.538806	0.000947	20.822740
227.064787	-2.990100	3.813000	-11.400000	22.561358	0.000949	20.815928
228.059651	-3.013700	3.812100	-11.488000	22.569180	0.000950	20.842728
229.068971	-2.992500	3.813200	-11.410000	22.572045	0.000949	20.824735
230.060784	-2.984400	3.813600	-11.381000	22.585601	0.000950	20.835941
231.061352	-2.991000	3.813400	-11.406000	22.586922	0.000950	20.838213
232.061954	-2.977400	3.812700	-11.351000	22.551264	0.000951	20.838061
233.064947	-3.020500	3.811600	-11.512000	22.575384	0.000949	20.838984
234.060200	-3.005000	3.812400	-11.455000	22.562729	0.000950	20.837215
235.061808	-3.006400	3.812500	-11.460000	22.573914	0.000951	20.837038
236.061790	-3.000400	3.812400	-11.438000	22.587519	0.000951	20.834544
237.061110	-3.016400	3.811500	-11.496000	22.603760	0.000952	20.843223
238.065108	-2.992900	3.810100	-11.402000	22.598330	0.000953	20.839207
239.061212	-3.010200	3.810200	-11.469000	22.630970	0.000951	20.852458
240.073073	-2.976700	3.810100	-11.340000	22.635231	0.000952	20.842027
241.062106	-3.007500	3.810100	-11.456000	22.621128	0.000953	20.850187
242.070135	-2.990300	3.810000	-11.392000	22.635432	0.000952	20.847445
243.063438	-3.005800	3.809300	-11.448000	22.642483	0.000956	20.831748
244.063740	-2.988200	3.808900	-11.380000	22.647662	0.000954	20.839306
245.068593	-2.991100	3.808000	-11.389000	22.645578	0.000956	20.829158
246.066097	-3.034500	3.808200	-11.556000	22.632970	0.000955	20.862521
247.070688	-2.983300	3.809100	-11.362000	22.649217	0.000957	20.849872
248.066861	-2.987500	3.809000	-11.379000	22.655222	0.000957	20.855413
249.071344	-2.988500	3.808300	-11.380000	22.695731	0.000957	20.845254
250.066216	-3.006000	3.806200	-11.439000	22.689758	0.000959	20.855392
251.066418	-2.996400	3.809200	-11.412000	22.693746	0.000957	20.857964
252.071992	-2.994200	3.807100	-11.397000	22.676754	0.000959	20.844738
253.071476	-3.004800	3.806600	-11.436000	22.678397	0.000960	20.866297
254.071823	-3.004900	3.808300	-11.443000	22.668233	0.000959	20.847583
255.073862	-3.001900	3.805900	-11.424000	22.657695	0.000960	20.862157
256.072860	-3.004600	3.806200	-11.435000	22.679598	0.000961	20.843793
257.079445	-2.988400	3.806700	-11.375000	22.687596	0.000962	20.856071
258.076867	-3.018100	3.805000	-11.482000	22.707852	0.000962	20.867825
259.071105	-2.990300	3.806200	-11.381000	22.728655	0.000962	20.875386
260.075617	-3.006200	3.805400	-11.439000	22.737203	0.000964	20.845545
261.069970	-3.023900	3.804100	-11.502000	22.722805	0.000963	20.860519
262.072157	-2.980100	3.805000	-11.339000	22.758606	0.000963	20.866983
263.075264	-2.991900	3.805300	-11.384000	22.736981	0.000965	20.875666
264.080850	-3.004100	3.804700	-11.427000	22.751983	0.000966	20.855608
265.071758	-2.982500	3.804700	-11.346000	22.735787	0.000965	20.864988
266.075752	-2.993900	3.804200	-11.389000	22.742043	0.000966	20.882633
267.076434	-3.032000	3.801700	-11.525000	22.764714	0.000966	20.859825
268.070742	-2.987500	3.803000	-11.360000	22.759235	0.000967	20.860501
269.076277	-2.996700	3.802600	-11.394000	22.767579	0.000967	20.871229
270.076559	-3.007100	3.803200	-11.434000	22.759133	0.000969	20.879838
271.083826	-3.004500	3.800700	-11.419000	22.758137	0.000968	20.866513
272.077429	-2.992300	3.803200	-11.379000	22.750189	0.000969	20.873249
