LabVIEW Measurement	
Writer_Version	2
Reader_Version	2
Separator	Tab
Decimal_Separator	.
Multi_Headings	No
X_Columns	One
Time_Pref	Absolute
Operator	admin
Description	Clolumns are: time, Current, Voltage, Power, Battery Temp, and Chamber Temp
Date	2024/08/16
Time	13:06:06.104549407958984375
***End_of_Header***	
	
Channels	6						
Samples	1	1	1	1	1	1	
Date	2024/09/01	2024/09/01	2024/09/01	2024/09/01	2024/09/01	2024/09/01	
Time	04:12:38.6768050193786621094	04:12:38.6828126907348632812	04:12:38.6878399848937988281	04:12:38.6606373786926269531	04:12:38.6606373786926269531	04:12:38.6606373786926269531	
X_Dimension	Time	Time	Time	Time	Time	Time	
X0	0.0000000000000000E+0	0.0000000000000000E+0	0.0000000000000000E+0	0.0000000000000000E+0	0.0000000000000000E+0	0.0000000000000000E+0	
Delta_X	1.000000	1.000000	1.000000	1.000000	1.000000	1.000000	
***End_of_Header***							
X_Value	Untitled	Untitled 1	Untitled 2	Untitled 3	Untitled 4	Untitled 5	Comment
0.000000	0.026279	4.109400	0.107910	21.121007	0.000962	20.880654
1.003401	-3.020700	3.941200	-11.905000	21.107519	0.000962	20.881860
2.000716	-2.995300	3.934100	-11.783000	21.116586	0.000960	20.907523
3.001655	-2.987600	3.928900	-11.736000	21.104313	0.000959	20.876757
4.003850	-2.979000	3.924600	-11.691000	21.123110	0.000958	20.870904
5.001632	-3.043700	3.920300	-11.929000	21.123429	0.000960	20.886395
6.001789	-3.008100	3.918200	-11.786000	21.112381	0.000958	20.868707
7.005237	-3.028000	3.913700	-11.849000	21.119311	0.000955	20.873741
8.001795	-3.003600	3.912400	-11.750000	21.139029	0.000958	20.859327
9.002202	-3.006700	3.911700	-11.760000	21.118708	0.000954	20.868871
10.003039	-2.998500	3.909500	-11.722000	21.134660	0.000955	20.880560
11.002024	-3.005200	3.908000	-11.743000	21.106667	0.000952	20.886223
12.003990	-3.010800	3.905800	-11.759000	21.129368	0.000953	20.876689
13.003614	-2.984000	3.905100	-11.652000	21.154759	0.000951	20.877431
14.003758	-3.026200	3.902100	-11.808000	21.154888	0.000952	20.877086
15.004056	-2.993200	3.902100	-11.680000	21.149683	0.000950	20.874251
16.004364	-2.990000	3.900100	-11.660000	21.155371	0.000948	20.869509
17.004472	-3.001000	3.899000	-11.700000	21.145623	0.000948	20.885836
18.002777	-3.011100	3.896900	-11.733000	21.169462	0.000950	20.872225
19.010964	-3.002800	3.895800	-11.697000	21.161188	0.000947	20.852570
20.004353	-2.994500	3.896700	-11.668000	21.159086	0.000947	20.875596
21.003565	-3.000700	3.895700	-11.689000	21.167669	0.000946	20.874225
22.003523	-3.038800	3.892800	-11.827000	21.151950	0.000946	20.873673
23.004873	-2.995600	3.893900	-11.663000	21.177813	0.000946	20.879156
24.004961	-2.989900	3.893800	-11.640000	21.185784	0.000944	20.880966
25.005002	-3.030600	3.891300	-11.792000	21.187500	0.000944	20.872251
26.006684	-2.987400	3.892800	-11.627000	21.198937	0.000945	20.874208
27.006147	-3.009000	3.889300	-11.701000	21.200323	0.000943	20.876544
28.004645	-3.010900	3.889300	-11.708000	21.201142	0.000939	20.860769
29.005250	-3.010900	3.889600	-11.711000	21.190534	0.000941	20.865803
30.005178	-3.014300	3.888100	-11.718000	21.218422	0.000939	20.859562
31.005846	-2.996700	3.886900	-11.647000	21.217241	0.000940	20.865968
32.007626	-2.989100	3.888300	-11.622000	21.235597	0.000940	20.877217
33.007740	-2.994400	3.887100	-11.638000	21.211666	0.000939	20.868451
34.009377	-2.995200	3.885700	-11.638000	21.264535	0.000939	20.881984
35.010132	-3.006700	3.884900	-11.679000	21.243216	0.000937	20.863503
36.010939	-3.001600	3.884800	-11.659000	21.247111	0.000937	20.863132
37.010469	-3.004800	3.884500	-11.672000	21.260701	0.000936	20.866770
38.011286	-3.027000	3.883700	-11.754000	21.246457	0.000937	20.869589
39.012017	-3.010100	3.882000	-11.684000	21.264432	0.000935	20.874295
40.012292	-3.029900	3.880400	-11.756000	21.270699	0.000937	20.889099
41.012065	-2.989700	3.882900	-11.608000	21.260427	0.000935	20.857013
42.012710	-3.023900	3.880600	-11.733000	21.289132	0.000933	20.846376
43.011759	-3.011100	3.881500	-11.686000	21.281600	0.000934	20.883409
44.016537	-2.973900	3.880700	-11.541000	21.273311	0.000933	20.859471
45.011868	-3.010200	3.881100	-11.682000	21.294252	0.000934	20.871411
46.014206	-2.995400	3.880500	-11.622000	21.303627	0.000933	20.857558
47.016600	-3.007700	3.878600	-11.665000	21.290218	0.000931	20.865480
48.014972	-2.972900	3.879700	-11.533000	21.304327	0.000935	20.869162
49.014832	-2.971400	3.879100	-11.525000	21.305204	0.000932	20.857713
50.017836	-2.987700	3.878800	-11.587000	21.308393	0.000932	20.864221
51.014308	-2.989700	3.878200	-11.594000	21.338786	0.000934	20.846740
52.014535	-2.981600	3.879200	-11.565000	21.353771	0.000933	20.858412
53.016760	-2.999800	3.877200	-11.630000	21.328411	0.000932	20.852955
54.016716	-3.010500	3.875800	-11.666000	21.345930	0.000935	20.869059
55.015873	-2.978000	3.877200	-11.545000	21.350360	0.000932	20.849784
56.017968	-2.984000	3.876200	-11.566000	21.368765	0.000932	20.853500
57.017210	-3.009900	3.875000	-11.662000	21.368085	0.000932	20.830535
58.021064	-3.013200	3.875600	-11.676000	21.368662	0.000931	20.857664
59.021806	-3.007500	3.875200	-11.654000	21.364484	0.000930	20.836415
60.019424	-3.004800	3.874200	-11.640000	21.359718	0.000931	20.859621
61.020336	-3.008200	3.873800	-11.652000	21.395375	0.000932	20.857363
62.021521	-2.999900	3.872600	-11.616000	21.364293	0.000931	20.848552
63.021020	-3.014200	3.874900	-11.679000	21.396719	0.000928	20.845433
64.019181	-3.018400	3.872900	-11.689000	21.397029	0.000931	20.863285
65.024647	-2.983800	3.873500	-11.557000	21.394202	0.000930	20.845759
66.020966	-2.996200	3.873500	-11.605000	21.416881	0.000929	20.856122
67.021014	-3.003100	3.873300	-11.630000	21.416330	0.000929	20.826648
68.025265	-2.988800	3.871100	-11.569000	21.445176	0.000928	20.840337
69.020797	-3.004100	3.872500	-11.631000	21.458255	0.000928	20.846784
70.021059	-2.982400	3.872600	-11.549000	21.460212	0.000928	20.836889
71.024462	-2.978300	3.872700	-11.532000	21.475608	0.000928	20.854190
72.021663	-2.998500	3.870100	-11.603000	21.453913	0.000929	20.854293
73.021422	-2.990500	3.872300	-11.579000	21.455386	0.000928	20.860034
74.023649	-2.998300	3.870100	-11.603000	21.482078	0.000928	20.845491
75.023151	-2.993700	3.871400	-11.589000	21.478822	0.000928	20.841285
76.024290	-3.006300	3.869700	-11.632000	21.476211	0.000929	20.873758
77.027766	-2.968300	3.871800	-11.491000	21.496139	0.000929	20.881370
78.023567	-2.997400	3.869800	-11.599000	21.515171	0.000928	20.830715
79.022040	-3.021200	3.868100	-11.685000	21.511035	0.000930	20.851707
80.027508	-3.016900	3.867700	-11.667000	21.520065	0.000928	20.840827
81.022230	-3.000400	3.868500	-11.606000	21.517515	0.000927	20.834957
82.023013	-3.025900	3.868500	-11.705000	21.528594	0.000928	20.829922
83.028772	-3.002400	3.868800	-11.614000	21.526905	0.000928	20.849568
84.026614	-3.006300	3.869100	-11.630000	21.516532	0.000928	20.840137
85.025809	-2.993000	3.868200	-11.575000	21.527888	0.000927	20.837276
86.028204	-2.994200	3.868100	-11.580000	21.528233	0.000927	20.829561
87.026864	-2.999500	3.867700	-11.601000	21.518143	0.000927	20.842698
88.024639	-3.022500	3.866100	-11.683000	21.557534	0.000927	20.829957
89.028810	-3.010900	3.867800	-11.643000	21.588978	0.000928	20.846249
90.025307	-3.018400	3.866200	-11.669000	21.568655	0.000928	20.832077
91.024813	-2.998200	3.865400	-11.587000	21.580552	0.000928	20.849671
92.028896	-3.002300	3.867800	-11.612000	21.589339	0.000927	20.841395
93.025881	-3.023100	3.864200	-11.681000	21.589004	0.000927	20.820197
94.027137	-3.019500	3.865600	-11.671000	21.613781	0.000927	20.823181
95.030403	-2.991200	3.865600	-11.562000	21.615193	0.000927	20.813688
96.026291	-3.011900	3.865400	-11.641000	21.613514	0.000927	20.831922
97.027576	-3.023500	3.863400	-11.680000	21.617743	0.000926	20.812921
98.034308	-3.003000	3.864500	-11.604000	21.620147	0.000926	20.828603
99.028157	-2.981400	3.865500	-11.523000	21.621681	0.000928	20.818285
100.028574	-2.997300	3.862800	-11.575000	21.638316	0.000928	20.831138
101.034032	-3.007400	3.864100	-11.620000	21.649894	0.000926	20.833241
102.030059	-3.004900	3.863600	-11.608000	21.672698	0.000927	20.826664
103.030021	-2.996900	3.863100	-11.576000	21.671112	0.000927	20.830767
104.030986	-3.000200	3.863100	-11.588000	21.676858	0.000927	20.814233
105.030905	-2.998600	3.861800	-11.579000	21.663041	0.000928	20.831225
106.029834	-2.991100	3.863600	-11.556000	21.691778	0.000928	20.823000
107.033089	-3.010500	3.862200	-11.626000	21.683405	0.000927	20.821733
108.031384	-2.986900	3.864700	-11.542000	21.697757	0.000930	20.831828
109.030682	-2.994800	3.861700	-11.563000	21.706733	0.000927	20.812837
110.032668	-2.998600	3.861400	-11.578000	21.709756	0.000927	20.841466
111.032030	-2.997000	3.860900	-11.570000	21.716553	0.000926	20.822190
112.035445	-2.987000	3.862400	-11.535000	21.724366	0.000928	20.826690
113.032078	-3.003700	3.860300	-11.594000	21.734324	0.000930	20.809156
114.031739	-2.992000	3.862100	-11.555000	21.718165	0.000929	20.810053
115.032041	-3.003600	3.860500	-11.594000	21.732645	0.000927	20.822648
116.031300	-2.993000	3.861400	-11.556000	21.733351	0.000928	20.824303
117.030774	-2.992900	3.861900	-11.557000	21.752044	0.000927	20.815510
118.031004	-3.004700	3.859600	-11.596000	21.750674	0.000927	20.825993
119.032977	-3.040200	3.858200	-11.728000	21.749021	0.000928	20.830976
120.030970	-2.989400	3.859200	-11.535000	21.771555	0.000929	20.837882
121.031572	-3.006800	3.859200	-11.603000	21.773923	0.000927	20.811804
122.030417	-3.005600	3.859800	-11.600000	21.804330	0.000928	20.823744
123.030709	-2.997600	3.858400	-11.565000	21.809480	0.000929	20.821313
124.032257	-3.021200	3.857400	-11.653000	21.805097	0.000928	20.804124
125.034204	-3.007000	3.858000	-11.600000	21.819912	0.000929	20.811365
126.034187	-3.018200	3.856800	-11.639000	21.832538	0.000929	20.802666
127.035205	-2.996700	3.858700	-11.562000	21.818233	0.000930	20.793089
128.033828	-3.017100	3.857600	-11.638000	21.813589	0.000928	20.802192
129.035171	-3.002300	3.858300	-11.582000	21.827069	0.000930	20.806675
130.035562	-3.012300	3.857300	-11.619000	21.838783	0.000928	20.809865
131.034912	-3.010700	3.855900	-11.607000	21.863443	0.000930	20.799934
132.034068	-3.003200	3.855300	-11.576000	21.863994	0.000931	20.807124
133.033377	-3.015700	3.855800	-11.626000	21.861918	0.000930	20.795563
134.038085	-3.003400	3.856300	-11.581000	21.882211	0.000932	20.785054
135.038743	-3.006300	3.856500	-11.593000	21.862753	0.000930	20.805408
136.038929	-3.013100	3.855700	-11.617000	21.880203	0.000929	20.786364
137.039331	-3.004900	3.856100	-11.586000	21.890815	0.000931	20.781338
138.039460	-3.023900	3.855000	-11.655000	21.890496	0.000931	20.799511
139.038377	-3.010400	3.856900	-11.609000	21.924257	0.000930	20.794425
140.038454	-2.996400	3.855800	-11.552000	21.899806	0.000931	20.774217
141.039967	-3.003600	3.855900	-11.580000	21.903734	0.000932	20.820822
142.039716	-3.010300	3.854700	-11.602000	21.914387	0.000932	20.797821
143.039449	-3.048800	3.852600	-11.745000	21.923870	0.000933	20.808262
144.040432	-3.026400	3.852600	-11.658000	21.912363	0.000932	20.786312
145.038539	-3.015000	3.853600	-11.617000	21.932706	0.000931	20.796718
146.044561	-2.991300	3.854300	-11.528000	21.913285	0.000932	20.799563
147.039606	-3.022200	3.851900	-11.639000	21.920451	0.000933	20.811004
148.039976	-2.987000	3.853100	-11.507000	21.909505	0.000934	20.791512
149.041046	-2.994600	3.852200	-11.535000	21.940053	0.000932	20.788899
150.042245	-3.007000	3.852700	-11.584000	21.923284	0.000932	20.796770
151.041358	-2.995900	3.852800	-11.542000	21.933292	0.000934	20.788296
152.041877	-2.975200	3.853500	-11.463000	21.915499	0.000935	20.779493
153.042832	-2.995100	3.853800	-11.542000	21.923793	0.000936	20.798702
154.041619	-3.029900	3.851600	-11.669000	21.937082	0.000934	20.787822
155.042180	-3.000900	3.852100	-11.558000	21.942163	0.000934	20.791012
156.043597	-2.984800	3.854600	-11.504000	21.949166	0.000936	20.759140
157.044259	-3.020400	3.851100	-11.630000	21.966089	0.000935	20.778451
158.042674	-2.991600	3.853900	-11.527000	21.963556	0.000935	20.784925
159.043838	-3.000300	3.852500	-11.558000	21.995740	0.000936	20.779209
160.045359	-2.999000	3.852100	-11.551000	21.993777	0.000936	20.793840
161.044525	-3.003000	3.851300	-11.563000	21.996249	0.000935	20.780193
162.044590	-3.003600	3.851400	-11.567000	22.006067	0.000937	20.804720
163.045420	-2.972200	3.851900	-11.447000	22.014834	0.000938	20.793582
164.044164	-2.985500	3.852200	-11.500000	22.024349	0.000938	20.785090
165.044367	-2.978200	3.849400	-11.463000	22.018253	0.000938	20.782306
166.045011	-2.994600	3.849400	-11.527000	22.020621	0.000937	20.778512
167.048440	-2.997000	3.850800	-11.539000	22.030697	0.000939	20.795711
168.044225	-2.979000	3.850800	-11.470000	22.029852	0.000938	20.788702
169.043956	-2.978000	3.850300	-11.466000	22.056608	0.000938	20.785615
170.045188	-2.984400	3.849000	-11.486000	22.049668	0.000939	20.780090
171.044903	-2.991400	3.850500	-11.516000	22.049797	0.000942	20.779271
172.047716	-2.997800	3.849600	-11.539000	22.056315	0.000941	20.794805
173.049019	-3.003600	3.848800	-11.559000	22.073607	0.000939	20.778926
174.050004	-2.989100	3.849500	-11.505000	22.062998	0.000940	20.786796
175.047081	-2.989900	3.847800	-11.502000	22.083174	0.000942	20.795141
176.050029	-3.026500	3.846900	-11.642000	22.086283	0.000941	20.780235
177.054214	-2.984500	3.848500	-11.484000	22.079101	0.000943	20.783477
178.048234	-2.995500	3.847300	-11.523000	22.086128	0.000943	20.789089
179.051548	-3.025100	3.846300	-11.634000	22.102025	0.000941	20.803107
180.054640	-3.002600	3.847700	-11.552000	22.098262	0.000944	20.778003
181.050451	-2.996800	3.847000	-11.528000	22.134875	0.000943	20.782890
182.055165	-2.992500	3.846600	-11.510000	22.137304	0.000943	20.812823
183.052690	-2.989800	3.846300	-11.498000	22.140903	0.000944	20.781338
184.050009	-2.991000	3.847100	-11.505000	22.146956	0.000946	20.795934
185.052014	-2.993800	3.846900	-11.516000	22.172211	0.000944	20.804150
186.051157	-3.002100	3.847000	-11.548000	22.185291	0.000944	20.784054
187.050421	-2.994700	3.845700	-11.516000	22.193110	0.000945	20.797573
188.052141	-3.024400	3.844300	-11.625000	22.173961	0.000945	20.786935
189.052107	-3.013600	3.845100	-11.587000	22.208893	0.000946	20.785399
190.050192	-2.996500	3.846800	-11.525000	22.233441	0.000947	20.800495
191.051940	-3.024600	3.844700	-11.628000	22.249249	0.000947	20.797357
192.057126	-2.988400	3.844000	-11.486000	22.266667	0.000948	20.791089
193.050956	-2.996000	3.844100	-11.516000	22.240760	0.000947	20.792176
194.054602	-2.987100	3.845000	-11.484000	22.257834	0.000949	20.786512
195.055984	-3.006600	3.842800	-11.553000	22.269328	0.000947	20.794702
196.049444	-2.993800	3.844100	-11.507000	22.258420	0.000948	20.799901
197.053706	-3.015400	3.844300	-11.591000	22.291249	0.000950	20.810961
198.069899	-3.023200	3.842200	-11.614000	22.280909	0.000949	20.791125
199.050747	-3.018900	3.843000	-11.600000	22.295830	0.000949	20.804169
200.053186	-3.010600	3.842900	-11.568000	22.309321	0.000949	20.776900
201.052698	-3.006700	3.843100	-11.554000	22.307323	0.000950	20.803349
202.052541	-3.009400	3.842000	-11.561000	22.325179	0.000952	20.797995
203.054378	-3.010700	3.842400	-11.567000	22.304904	0.000950	20.799030
204.055445	-2.999800	3.841600	-11.523000	22.289097	0.000951	20.807858
205.052783	-2.999900	3.842200	-11.525000	22.311189	0.000951	20.792047
206.056131	-3.028600	3.840100	-11.629000	22.292618	0.000951	20.788625
207.057096	-3.003400	3.842900	-11.541000	22.293282	0.000953	20.784547
208.053372	-2.993300	3.842100	-11.500000	22.300349	0.000953	20.804901
209.057053	-3.003200	3.842400	-11.539000	22.303174	0.000955	20.775013
210.055941	-2.991200	3.842600	-11.493000	22.325955	0.000954	20.795927
211.054554	-2.997500	3.841600	-11.514000	22.314555	0.000955	20.806323
212.061559	-3.004000	3.842500	-11.541000	22.309933	0.000957	20.796953
213.054940	-3.008400	3.839400	-11.549000	22.300040	0.000956	20.809333
214.054475	-3.041300	3.839400	-11.676000	22.284008	0.000955	20.802762
215.059950	-3.003000	3.840100	-11.531000	22.295166	0.000955	20.814884
216.058136	-3.010900	3.838500	-11.556000	22.266409	0.000956	20.794624
217.057212	-2.980800	3.842300	-11.451000	22.275596	0.000956	20.805720
218.060506	-3.000400	3.839600	-11.519000	22.278299	0.000957	20.807478
219.058649	-2.994000	3.840300	-11.497000	22.291507	0.000959	20.831134
220.057004	-2.996000	3.840200	-11.505000	22.293875	0.000957	20.801737
221.065465	-3.016900	3.839000	-11.580000	22.304086	0.000959	20.804849
222.059054	-2.993600	3.838900	-11.490000	22.312945	0.000959	20.813719
223.058973	-3.009500	3.838600	-11.551000	22.333616	0.000960	20.794115
224.063560	-2.981800	3.838800	-11.445000	22.331963	0.000961	20.817116
225.062633	-2.995300	3.838000	-11.495000	22.347476	0.000960	20.810839
226.058556	-3.000000	3.837300	-11.511000	22.377127	0.000961	20.798331
227.061706	-2.990300	3.838600	-11.477000	22.384049	0.000962	20.827073
228.061806	-2.993700	3.837900	-11.489000	22.396170	0.000962	20.801753
229.060205	-3.017900	3.836500	-11.576000	22.393432	0.000962	20.828883
230.063157	-2.992500	3.838400	-11.485000	22.373658	0.000962	20.823306
231.063873	-3.014900	3.835800	-11.564000	22.386752	0.000963	20.804175
232.061331	-3.001100	3.837300	-11.515000	22.372968	0.000965	20.817874
233.067513	-3.004800	3.836100	-11.525000	22.402335	0.000964	20.807926
234.069016	-2.981900	3.837600	-11.442000	22.354183	0.000966	20.810443
235.066437	-3.005900	3.835800	-11.529000	22.383092	0.000963	20.825167
236.068613	-3.009500	3.835300	-11.541000	22.380174	0.000965	20.829831
237.069647	-2.992800	3.835700	-11.479000	22.371142	0.000963	20.824580
238.066561	-3.038200	3.834400	-11.649000	22.363119	0.000965	20.816071
239.069399	-3.033300	3.835500	-11.632000	22.366778	0.000966	20.833485
240.068549	-2.989100	3.834400	-11.460000	22.371168	0.000967	20.818442
241.066903	-3.019800	3.835400	-11.581000	22.384297	0.000967	20.823054
242.068761	-3.012400	3.836200	-11.555000	22.399294	0.000967	20.815313
243.070220	-3.012800	3.833600	-11.547000	22.435882	0.000968	20.829192
244.066825	-3.029000	3.833600	-11.612000	22.439798	0.000969	20.815097
245.068875	-2.994600	3.835200	-11.484000	22.444662	0.000969	20.827080
246.072064	-2.996800	3.833300	-11.486000	22.455845	0.000970	20.830218
247.066474	-2.999700	3.833800	-11.500000	22.485312	0.000972	20.824641
248.071548	-2.996900	3.834600	-11.491000	22.495142	0.000969	20.838753
249.073787	-3.006400	3.832700	-11.521000	22.518814	0.000970	20.833537
250.068508	-2.980500	3.833500	-11.423000	22.525890	0.000972	20.837778
251.072270	-3.013700	3.831900	-11.547000	22.542873	0.000972	20.823019
252.070320	-3.002400	3.830700	-11.500000	22.545301	0.000973	20.824977
253.069246	-2.993900	3.833600	-11.476000	22.566656	0.000972	20.833563
254.071049	-3.014400	3.831900	-11.550000	22.579026	0.000973	20.835046
255.072384	-2.996700	3.832900	-11.483000	22.574756	0.000972	20.853054
256.069203	-3.013900	3.830000	-11.542000	22.580144	0.000974	20.840907
257.070563	-2.995100	3.831700	-11.475000	22.592169	0.000974	20.834934
258.068745	-3.001200	3.830900	-11.496000	22.589062	0.000974	20.822813
259.071636	-3.019400	3.830700	-11.565000	22.611234	0.000975	20.856399
260.073523	-3.000300	3.831600	-11.495000	22.620306	0.000977	20.832769
261.073383	-2.999300	3.831000	-11.490000	22.617225	0.000978	20.852915
262.071121	-2.999700	3.831300	-11.492000	22.617518	0.000977	20.831399
263.079979	-2.995400	3.830000	-11.472000	22.614497	0.000978	20.850183
264.074175	-2.992800	3.829600	-11.460000	22.586092	0.000977	20.847813
265.076701	-3.012500	3.828800	-11.533000	22.591351	0.000979	20.842175
266.077191	-2.986300	3.829900	-11.436000	22.603737	0.000978	20.836088
267.077224	-2.993600	3.828700	-11.460000	22.609676	0.000977	20.838243
268.075952	-2.993000	3.829600	-11.460000	22.627717	0.000980	20.846829
269.077705	-2.998700	3.829300	-11.482000	22.630937	0.000979	20.851477
270.078422	-3.009300	3.827200	-11.516000	22.654967	0.000982	20.856105
271.078466	-2.999900	3.828300	-11.483000	22.664383	0.000981	20.844675
272.079412	-2.985500	3.829500	-11.432000	22.657360	0.000981	20.847597
