LabVIEW Measurement	
Writer_Version	2
Reader_Version	2
Separator	Tab
Decimal_Separator	.
Multi_Headings	No
X_Columns	One
Time_Pref	Absolute
Operator	admin
Description	Clolumns are: time, Current, Voltage, Power, Battery Temp, and Chamber Temp
Date	2024/08/16
Time	13:06:06.104549407958984375
***End_of_Header***	
	
Channels	6						
Samples	1	1	1	1	1	1	
Date	2024/09/20	2024/09/20	2024/09/20	2024/09/20	2024/09/20	2024/09/20	
Time	10:42:03.5513134002685546875	10:42:03.5577821731567382813	10:42:03.5631833076477050781	10:42:03.5333166122436523438	10:42:03.5333166122436523438	10:42:03.5333166122436523438	
X_Dimension	Time	Time	Time	Time	Time	Time	
X0	0.0000000000000000E+0	0.0000000000000000E+0	0.0000000000000000E+0	0.0000000000000000E+0	0.0000000000000000E+0	0.0000000000000000E+0	
Delta_X	1.000000	1.000000	1.000000	1.000000	1.000000	1.000000	
***End_of_Header***							
X_Value	Untitled	Untitled 1	Untitled 2	Untitled 3	Untitled 4	Untitled 5	Comment
0.000000	0.027042	4.092800	0.110670	21.034483	0.001059	20.787947
0.997439	-3.013800	3.903000	-11.762000	21.012630	0.001057	20.776521
2.005279	-3.017400	3.895700	-11.754000	21.034260	0.001057	20.794362
2.998022	-3.009100	3.889900	-11.704000	21.013207	0.001056	20.774253
3.997041	-2.991500	3.885900	-11.623000	21.034239	0.001054	20.753089
4.999757	-2.990200	3.882900	-11.610000	21.022313	0.001056	20.766766
5.997971	-3.011400	3.878900	-11.680000	21.027807	0.001054	20.764200
7.001103	-2.988200	3.876000	-11.580000	21.014785	0.001053	20.789108
7.998423	-2.984100	3.874200	-11.559000	21.051740	0.001051	20.765853
9.001240	-2.994900	3.872100	-11.595000	21.013964	0.001053	20.761260
10.001267	-2.997100	3.868600	-11.592000	21.028660	0.001050	20.773114
11.000655	-3.006000	3.867300	-11.624000	21.031108	0.001050	20.767976
12.006738	-2.993100	3.866400	-11.571000	21.035969	0.001050	20.773312
13.001871	-2.992400	3.864400	-11.562000	21.059102	0.001047	20.770846
14.001269	-2.992800	3.863800	-11.562000	21.049872	0.001048	20.768252
15.001054	-3.010600	3.862200	-11.626000	21.058161	0.001046	20.783181
16.003445	-2.995300	3.861000	-11.564000	21.069790	0.001048	20.765415
17.002431	-3.011300	3.859000	-11.619000	21.065849	0.001046	20.788026
18.002764	-3.007400	3.857200	-11.599000	21.074831	0.001046	20.782785
19.002306	-2.986300	3.858800	-11.523000	21.085210	0.001046	20.767563
20.004582	-3.009100	3.857000	-11.605000	21.088779	0.001044	20.757382
21.002161	-2.993400	3.856200	-11.543000	21.086484	0.001046	20.768362
22.006873	-3.000200	3.855400	-11.564000	21.089827	0.001043	20.768861
23.004858	-3.032500	3.851700	-11.679000	21.097263	0.001044	20.762548
24.003432	-2.986200	3.855800	-11.514000	21.113256	0.001043	20.758157
25.012490	-2.971100	3.853800	-11.449000	21.132921	0.001042	20.751749
26.003107	-2.977900	3.852800	-11.472000	21.122666	0.001040	20.759035
27.003326	-2.981900	3.852100	-11.485000	21.123465	0.001041	20.763154
28.007914	-2.992700	3.850700	-11.523000	21.125609	0.001039	20.766246
29.005167	-3.029600	3.849300	-11.661000	21.138687	0.001039	20.766526
30.004485	-3.000700	3.849400	-11.547000	21.155500	0.001041	20.768171
31.003465	-3.026600	3.847800	-11.644000	21.165079	0.001042	20.775383
32.004488	-3.006700	3.848300	-11.570000	21.143827	0.001040	20.754598
33.005813	-3.004400	3.847300	-11.558000	21.167676	0.001041	20.751427
34.006632	-2.990100	3.847500	-11.502000	21.186441	0.001039	20.768777
35.003632	-3.005300	3.846000	-11.557000	21.185341	0.001039	20.776685
36.005156	-2.993500	3.846300	-11.513000	21.218524	0.001043	20.756774
37.005026	-3.006900	3.845100	-11.561000	21.193077	0.001039	20.770199
38.005591	-2.998000	3.845800	-11.528000	21.216752	0.001042	20.772545
39.006443	-3.000100	3.844300	-11.533000	21.236139	0.001041	20.761120
40.008475	-3.013800	3.843200	-11.582000	21.210523	0.001039	20.765366
41.007634	-2.994400	3.843900	-11.508000	21.217406	0.001040	20.766562
42.006154	-2.997400	3.842600	-11.516000	21.237989	0.001039	20.767238
43.005681	-3.013900	3.841400	-11.576000	21.236518	0.001042	20.747273
44.007956	-3.013900	3.840400	-11.573000	21.249389	0.001039	20.746399
45.008627	-3.020300	3.841600	-11.601000	21.282941	0.001040	20.750568
46.005351	-2.996700	3.841400	-11.510000	21.260796	0.001038	20.758760
47.013422	-2.988000	3.841100	-11.476000	21.292074	0.001041	20.753066
48.006226	-2.997200	3.840000	-11.507000	21.285442	0.001040	20.761605
49.006077	-3.001400	3.838300	-11.518000	21.299859	0.001041	20.743784
50.008016	-2.978500	3.839400	-11.435000	21.281378	0.001041	20.768919
51.007723	-2.987400	3.838400	-11.466000	21.295296	0.001039	20.752497
52.010193	-2.981300	3.838700	-11.444000	21.286192	0.001038	20.763778
53.019541	-2.994500	3.838200	-11.493000	21.307973	0.001040	20.752376
54.010014	-3.000300	3.837200	-11.512000	21.331443	0.001040	20.759262
55.006357	-2.990900	3.835600	-11.470000	21.324639	0.001041	20.757670
56.009936	-2.999100	3.836400	-11.504000	21.338506	0.001039	20.748311
57.006514	-3.012500	3.834700	-11.551000	21.360208	0.001040	20.753902
58.006222	-3.019100	3.835400	-11.579000	21.352254	0.001039	20.752582
59.006650	-2.990800	3.836200	-11.472000	21.348933	0.001041	20.763484
60.007399	-2.992700	3.834500	-11.475000	21.354949	0.001040	20.743424
61.009252	-3.012300	3.833300	-11.545000	21.367745	0.001038	20.745795
62.017304	-3.001400	3.832900	-11.502000	21.380512	0.001041	20.755250
63.012108	-3.010600	3.833800	-11.541000	21.380562	0.001038	20.764783
64.010575	-2.986000	3.834200	-11.448000	21.402189	0.001039	20.760816
65.007677	-3.007300	3.832600	-11.525000	21.402613	0.001039	20.760292
66.014654	-2.989100	3.833700	-11.458000	21.413191	0.001040	20.754281
67.008687	-2.987700	3.833000	-11.451000	21.414988	0.001040	20.736637
68.009440	-2.997300	3.830900	-11.481000	21.448259	0.001041	20.754281
69.011032	-2.996700	3.831700	-11.481000	21.433841	0.001039	20.744121
70.008800	-2.989400	3.831900	-11.455000	21.445066	0.001041	20.768629
71.012080	-3.000000	3.830100	-11.489000	21.457016	0.001040	20.748343
72.011222	-2.978000	3.830600	-11.406000	21.454526	0.001039	20.732575
73.010636	-3.015700	3.829800	-11.548000	21.472983	0.001039	20.764320
74.018234	-2.997200	3.830500	-11.479000	21.479716	0.001039	20.745926
75.012691	-3.001000	3.829700	-11.492000	21.497352	0.001041	20.734649
76.011696	-3.005600	3.827500	-11.503000	21.479893	0.001040	20.736146
77.013303	-2.974200	3.830100	-11.390000	21.487726	0.001038	20.740664
78.011972	-3.006200	3.828200	-11.507000	21.485979	0.001038	20.738442
79.013020	-2.998200	3.827500	-11.474000	21.491167	0.001039	20.735098
80.013672	-2.995000	3.826300	-11.458000	21.498052	0.001040	20.751471
81.013469	-2.995900	3.828000	-11.467000	21.519479	0.001040	20.717908
82.013371	-2.996600	3.827400	-11.468000	21.531272	0.001041	20.740141
83.015478	-3.006800	3.825500	-11.501000	21.555191	0.001042	20.727565
84.013774	-2.984000	3.827000	-11.419000	21.583423	0.001040	20.718357
85.014493	-2.989300	3.826300	-11.437000	21.564519	0.001040	20.735477
86.015495	-2.979600	3.825400	-11.397000	21.566768	0.001039	20.729193
87.015509	-2.998900	3.825100	-11.471000	21.588367	0.001040	20.734685
88.017343	-2.992100	3.825900	-11.446000	21.593476	0.001041	20.736479
89.014742	-3.005100	3.824200	-11.492000	21.599466	0.001042	20.723980
90.014606	-3.007200	3.824600	-11.500000	21.636873	0.001040	20.738181
91.015338	-2.987400	3.825200	-11.427000	21.614678	0.001041	20.733988
92.015476	-3.007100	3.824100	-11.498000	21.628698	0.001041	20.743751
93.019317	-2.965200	3.825200	-11.341000	21.652459	0.001041	20.723432
94.017133	-2.973900	3.824000	-11.371000	21.649320	0.001042	20.752060
95.021916	-2.988800	3.822900	-11.425000	21.661416	0.001041	20.733344
96.020463	-3.006700	3.823400	-11.495000	21.685081	0.001042	20.724784
97.017186	-2.991600	3.822900	-11.435000	21.681294	0.001042	20.716727
98.019400	-2.989400	3.822400	-11.425000	21.687375	0.001043	20.728029
99.018793	-2.991900	3.822200	-11.434000	21.689101	0.001041	20.726437
100.018783	-3.028600	3.820800	-11.571000	21.709424	0.001041	20.729707
101.020255	-2.988600	3.821700	-11.419000	21.693567	0.001042	20.737071
102.019002	-3.003500	3.821100	-11.475000	21.712815	0.001039	20.707494
103.026758	-3.004500	3.820400	-11.477000	21.687185	0.001043	20.720251
104.028624	-2.970500	3.821500	-11.351000	21.686538	0.001044	20.712965
105.026368	-3.005700	3.819600	-11.478000	21.715983	0.001045	20.715881
106.023159	-3.005300	3.821200	-11.483000	21.716913	0.001043	20.739099
107.023361	-3.014100	3.820600	-11.514000	21.712299	0.001044	20.726420
108.026573	-2.999000	3.819500	-11.454000	21.729804	0.001046	20.715014
109.028589	-2.993000	3.818100	-11.426000	21.744194	0.001046	20.709501
110.026517	-3.005700	3.817800	-11.473000	21.751721	0.001046	20.714664
111.028538	-3.009900	3.818800	-11.492000	21.738212	0.001044	20.723904
112.037060	-2.981200	3.820500	-11.389000	21.758312	0.001047	20.726002
113.036247	-2.994300	3.819200	-11.435000	21.751181	0.001047	20.734513
114.030400	-2.985600	3.817700	-11.397000	21.767041	0.001045	20.725256
115.029917	-2.988000	3.818500	-11.408000	21.791351	0.001047	20.718766
116.029535	-3.007900	3.817800	-11.482000	21.803972	0.001048	20.721916
117.028782	-2.986500	3.817500	-11.398000	21.809208	0.001050	20.708663
118.029140	-2.998900	3.815700	-11.440000	21.806518	0.001046	20.713557
119.032079	-2.996800	3.816600	-11.437000	21.816018	0.001050	20.733972
120.030881	-2.964700	3.818000	-11.319000	21.822402	0.001050	20.727560
121.030384	-2.985200	3.816600	-11.391000	21.859901	0.001049	20.716728
122.030613	-2.955800	3.818700	-11.286000	21.861078	0.001049	20.722649
123.032499	-3.001600	3.814900	-11.450000	21.869531	0.001049	20.721152
124.035688	-2.993500	3.815900	-11.421000	21.900096	0.001052	20.702906
125.034574	-3.002900	3.814900	-11.455000	21.902192	0.001049	20.706427
126.033296	-2.999500	3.814000	-11.438000	21.911274	0.001052	20.708880
127.035166	-2.989200	3.814200	-11.399000	21.916782	0.001053	20.719609
128.032342	-2.978000	3.814900	-11.360000	21.910001	0.001051	20.728945
129.032643	-3.005500	3.812400	-11.456000	21.942686	0.001052	20.734635
130.036267	-3.020000	3.813700	-11.515000	21.947476	0.001053	20.715247
131.035695	-3.005500	3.813100	-11.459000	21.939448	0.001051	20.722858
132.034226	-3.021100	3.812500	-11.517000	21.937553	0.001054	20.697252
133.032380	-2.995700	3.813400	-11.421000	21.957052	0.001053	20.705866
134.032152	-2.989800	3.813800	-11.401000	21.937582	0.001053	20.696806
135.033622	-3.007500	3.812300	-11.465000	21.948151	0.001054	20.700749
136.036256	-3.006600	3.813600	-11.466000	21.939876	0.001053	20.721390
137.033364	-3.005300	3.812100	-11.455000	21.957381	0.001053	20.706669
138.034985	-2.982000	3.813000	-11.369000	21.956084	0.001055	20.698732
139.032679	-2.988700	3.813100	-11.395000	21.975381	0.001055	20.704773
140.032918	-2.990000	3.812600	-11.399000	21.992363	0.001053	20.711815
141.044079	-3.002200	3.811300	-11.441000	21.975957	0.001055	20.719101
142.033261	-2.997100	3.810800	-11.420000	22.022998	0.001056	20.708817
143.037392	-3.004600	3.811100	-11.449000	22.004554	0.001057	20.722123
144.033612	-2.991700	3.812200	-11.403000	22.018364	0.001056	20.716981
145.035075	-2.989900	3.811800	-11.396000	22.049201	0.001056	20.701383
146.035155	-2.988400	3.810700	-11.387000	22.031729	0.001059	20.721826
147.037987	-2.999700	3.808900	-11.424000	22.042121	0.001058	20.708520
148.041781	-2.997600	3.809400	-11.418000	22.048183	0.001058	20.703209
149.037543	-3.004800	3.809300	-11.444000	22.059851	0.001058	20.697345
150.036636	-2.998700	3.810100	-11.423000	22.041453	0.001059	20.701688
151.043832	-3.012500	3.808600	-11.473000	22.077972	0.001060	20.704582
152.038647	-2.994700	3.811100	-11.411000	22.087173	0.001059	20.712845
153.036578	-2.994900	3.810300	-11.409000	22.109186	0.001061	20.711175
154.036848	-2.987800	3.809900	-11.382000	22.121874	0.001061	20.721508
155.036516	-2.988400	3.809900	-11.385000	22.117294	0.001061	20.716923
156.037307	-3.006800	3.806900	-11.446000	22.135436	0.001061	20.704738
157.038013	-3.000100	3.807700	-11.421000	22.120853	0.001062	20.726176
158.038383	-2.990700	3.809400	-11.391000	22.135839	0.001063	20.717945
159.036122	-2.988500	3.808600	-11.381000	22.139525	0.001062	20.731119
160.038334	-2.984200	3.807300	-11.361000	22.154433	0.001062	20.713801
161.036916	-2.981200	3.808100	-11.352000	22.155582	0.001063	20.706416
162.037214	-2.991900	3.805600	-11.386000	22.160317	0.001064	20.702623
163.042346	-2.998700	3.806800	-11.414000	22.171939	0.001063	20.725639
164.041121	-2.999600	3.805400	-11.413000	22.225028	0.001065	20.730904
165.043082	-3.024700	3.805400	-11.508000	22.201049	0.001067	20.704523
166.043132	-2.997000	3.807300	-11.409000	22.190482	0.001065	20.705323
167.042406	-2.999000	3.806300	-11.414000	22.193398	0.001066	20.710139
168.045970	-2.984600	3.806300	-11.357000	22.206609	0.001067	20.729531
169.041789	-2.990100	3.807000	-11.382000	22.191133	0.001066	20.715458
170.042251	-2.991400	3.805300	-11.382000	22.177798	0.001066	20.713487
171.042149	-2.993500	3.805400	-11.390000	22.207531	0.001069	20.724291
172.042507	-3.008500	3.803700	-11.443000	22.216734	0.001069	20.707900
173.042331	-3.023800	3.802700	-11.497000	22.223488	0.001069	20.720827
174.045846	-2.997200	3.804000	-11.401000	22.209536	0.001071	20.717288
175.041796	-3.013300	3.803200	-11.458000	22.236151	0.001070	20.706951
176.044197	-2.980000	3.804100	-11.335000	22.243731	0.001071	20.719284
177.043602	-3.020400	3.801400	-11.480000	22.258881	0.001072	20.717384
178.042763	-2.989400	3.803400	-11.369000	22.272742	0.001072	20.728417
179.046592	-2.990900	3.802800	-11.373000	22.278350	0.001071	20.730714
180.043300	-3.013700	3.800600	-11.452000	22.294775	0.001074	20.728195
181.045032	-3.017100	3.801700	-11.469000	22.331690	0.001072	20.731493
182.042660	-3.021200	3.801500	-11.483000	22.337849	0.001074	20.709210
183.049103	-3.006000	3.800900	-11.424000	22.331093	0.001075	20.713350
184.049500	-3.002200	3.800900	-11.410000	22.340867	0.001074	20.724561
185.044993	-2.985000	3.801400	-11.346000	22.351882	0.001074	20.728479
186.044126	-2.992400	3.801900	-11.376000	22.344886	0.001076	20.734750
187.049100	-2.988900	3.800400	-11.356000	22.350317	0.001076	20.732127
188.044026	-2.989800	3.801100	-11.363000	22.347480	0.001077	20.720277
189.044998	-2.990900	3.800300	-11.365000	22.388403	0.001078	20.716685
190.047222	-2.999300	3.800300	-11.397000	22.384417	0.001077	20.720755
191.044734	-3.005600	3.798500	-11.414000	22.385067	0.001080	20.724251
192.050856	-2.997800	3.799500	-11.389000	22.412332	0.001080	20.706508
193.045197	-3.009200	3.799400	-11.431000	22.422777	0.001079	20.716021
194.047369	-2.978300	3.801100	-11.318000	22.457440	0.001078	20.726078
195.047696	-2.999000	3.800300	-11.395000	22.459334	0.001081	20.742200
196.046337	-3.015000	3.798900	-11.451000	22.468136	0.001080	20.726358
197.050413	-2.982700	3.799100	-11.331000	22.469980	0.001080	20.721092
198.047608	-2.992900	3.798700	-11.368000	22.497893	0.001081	20.741461
199.046546	-2.995300	3.797000	-11.372000	22.491018	0.001080	20.725091
200.051352	-2.991500	3.797400	-11.359000	22.509980	0.001082	20.734600
201.050694	-2.981100	3.797000	-11.319000	22.523512	0.001083	20.731083
202.048147	-2.975900	3.798800	-11.303000	22.497477	0.001083	20.729664
203.056659	-3.006500	3.797100	-11.414000	22.514048	0.001082	20.744838
204.050280	-3.026200	3.794500	-11.481000	22.533063	0.001084	20.729268
205.053467	-2.996700	3.796400	-11.376000	22.516744	0.001084	20.738055
206.053732	-3.009200	3.795700	-11.421000	22.521602	0.001083	20.711624
207.052352	-2.993300	3.795800	-11.360000	22.539547	0.001084	20.734339
208.052662	-2.998400	3.795100	-11.378000	22.542264	0.001086	20.747018
209.052754	-2.998200	3.794400	-11.375000	22.531923	0.001086	20.722909
210.052927	-2.997100	3.794600	-11.371000	22.526447	0.001086	20.761049
211.053711	-3.003800	3.794500	-11.397000	22.548274	0.001087	20.751141
212.054132	-3.022300	3.792900	-11.461000	22.525356	0.001088	20.734351
213.054140	-3.007000	3.794700	-11.410000	22.537566	0.001089	20.769341
214.053467	-3.004100	3.793800	-11.396000	22.510831	0.001090	20.735452
215.053499	-3.003800	3.792800	-11.391000	22.544375	0.001088	20.739175
216.054268	-3.006800	3.793100	-11.404000	22.548138	0.001092	20.756695
217.060048	-3.000400	3.793600	-11.381000	22.543329	0.001092	20.740973
218.053799	-3.000400	3.793400	-11.380000	22.561443	0.001093	20.742519
219.054883	-3.022500	3.791800	-11.459000	22.573855	0.001094	20.748312
220.055688	-3.003200	3.791200	-11.384000	22.573636	0.001094	20.742403
221.055246	-2.994200	3.792100	-11.352000	22.573982	0.001094	20.739905
222.057785	-2.996900	3.791500	-11.362000	22.587217	0.001093	20.767860
223.056389	-2.986500	3.791600	-11.322000	22.606952	0.001094	20.733571
224.060142	-2.978300	3.791600	-11.290000	22.614679	0.001095	20.744155
225.057386	-2.982900	3.791700	-11.309000	22.615506	0.001095	20.741665
226.068507	-3.005800	3.791100	-11.393000	22.618198	0.001095	20.756216
227.060226	-2.989500	3.789600	-11.327000	22.614761	0.001095	20.742815
228.067867	-2.979600	3.790800	-11.293000	22.629815	0.001095	20.740349
229.059568	-2.989400	3.791000	-11.332000	22.646458	0.001096	20.748010
230.061499	-3.009900	3.789800	-11.405000	22.668093	0.001096	20.766837
231.062542	-3.003800	3.789000	-11.380000	22.698961	0.001097	20.768832
232.068447	-2.994100	3.789300	-11.345000	22.715211	0.001096	20.739590
233.062952	-2.979000	3.789500	-11.288000	22.710523	0.001098	20.744377
234.063598	-2.980100	3.789600	-11.293000	22.699170	0.001099	20.749127
235.061912	-2.988000	3.788300	-11.318000	22.744291	0.001100	20.748331
236.062371	-3.004800	3.787200	-11.379000	22.759315	0.001100	20.745362
237.063496	-2.984400	3.787200	-11.301000	22.740011	0.001101	20.750681
238.063293	-3.012700	3.787600	-11.410000	22.747065	0.001102	20.747317
239.062861	-2.996400	3.788000	-11.348000	22.715129	0.001102	20.758474
240.063997	-2.999000	3.787100	-11.356000	22.745024	0.001101	20.777989
241.063098	-2.997000	3.787800	-11.350000	22.728366	0.001103	20.767467
242.068080	-3.002400	3.787800	-11.372000	22.772490	0.001101	20.750025
243.066922	-2.991600	3.787800	-11.330000	22.784693	0.001104	20.775527
244.063432	-2.979300	3.787900	-11.284000	22.801017	0.001104	20.755369
245.063549	-3.000800	3.786900	-11.362000	22.792822	0.001102	20.752850
246.062981	-3.016200	3.784700	-11.414000	22.830367	0.001104	20.778133
247.063666	-2.984800	3.787600	-11.304000	22.797811	0.001105	20.757847
248.067082	-2.999800	3.785000	-11.353000	22.798309	0.001104	20.760717
249.063233	-3.015200	3.784500	-11.410000	22.811862	0.001107	20.760543
250.068808	-3.021000	3.784600	-11.433000	22.803544	0.001106	20.746994
251.064593	-2.999900	3.783900	-11.350000	22.837873	0.001108	20.781860
252.066648	-3.015000	3.784100	-11.408000	22.847241	0.001109	20.757579
253.066368	-2.993700	3.783800	-11.326000	22.863958	0.001109	20.754412
254.065583	-2.974100	3.784300	-11.253000	22.871733	0.001110	20.747976
255.066502	-2.972800	3.784100	-11.247000	22.880400	0.001110	20.777522
256.064203	-2.997000	3.783000	-11.336000	22.883116	0.001109	20.755587
257.064697	-2.989500	3.784300	-11.312000	22.913456	0.001111	20.753266
258.064307	-2.980300	3.784400	-11.278000	22.890915	0.001110	20.748227
259.071424	-2.993700	3.782500	-11.323000	22.911814	0.001112	20.766794
260.064789	-2.977700	3.783600	-11.266000	22.902373	0.001112	20.763974
261.067838	-2.980900	3.781600	-11.270000	22.907377	0.001112	20.763772
262.066286	-2.984700	3.782700	-11.288000	22.891088	0.001115	20.771160
263.069731	-3.006300	3.780600	-11.363000	22.888224	0.001114	20.774455
264.069162	-3.005300	3.780800	-11.361000	22.918168	0.001115	20.747555
265.069049	-3.022900	3.779500	-11.424000	22.910645	0.001115	20.771787
266.071722	-3.024300	3.781100	-11.434000	22.922275	0.001116	20.760205
267.068731	-3.009800	3.779300	-11.372000	22.973046	0.001117	20.766501
268.076845	-3.000300	3.779400	-11.338000	22.961013	0.001118	20.760135
269.067890	-3.000300	3.779600	-11.338000	22.965025	0.001117	20.780751
270.072218	-2.993500	3.779400	-11.312000	22.976930	0.001119	20.760436
271.069299	-2.990700	3.778200	-11.298000	22.968688	0.001118	20.783472
272.069699	-3.004400	3.777900	-11.349000	22.973622	0.001120	20.781777
