LabVIEW Measurement	
Writer_Version	2
Reader_Version	2
Separator	Tab
Decimal_Separator	.
Multi_Headings	No
X_Columns	One
Time_Pref	Absolute
Operator	admin
Description	Clolumns are: time, Current, Voltage, Power, Battery Temp, and Chamber Temp
Date	2024/08/16
Time	13:06:06.104549407958984375
***End_of_Header***	
	
Channels	6						
Samples	1	1	1	1	1	1	
Date	2024/09/10	2024/09/10	2024/09/10	2024/09/10	2024/09/10	2024/09/10	
Time	02:49:00.8231134414672851562	02:49:00.8296713829040527344	02:49:00.8356728553771972656	02:49:00.8055958747863769531	02:49:00.8055958747863769531	02:49:00.8055958747863769531	
X_Dimension	Time	Time	Time	Time	Time	Time	
X0	0.0000000000000000E+0	0.0000000000000000E+0	0.0000000000000000E+0	0.0000000000000000E+0	0.0000000000000000E+0	0.0000000000000000E+0	
Delta_X	1.000000	1.000000	1.000000	1.000000	1.000000	1.000000	
***End_of_Header***							
X_Value	Untitled	Untitled 1	Untitled 2	Untitled 3	Untitled 4	Untitled 5	Comment
0.000000	-0.000772	4.095200	-0.003162	20.983053	0.000894	20.716591
1.006606	-2.999000	3.922300	-11.762000	20.978810	0.000894	20.717563
2.004659	-3.006900	3.915000	-11.771000	20.994929	0.000896	20.708554
3.003224	-3.003400	3.910200	-11.742000	20.987756	0.000894	20.722244
4.001698	-3.019400	3.905500	-11.791000	20.975406	0.000891	20.737393
5.000847	-2.972500	3.903400	-11.602000	20.994637	0.000892	20.735764
6.008226	-2.988500	3.900800	-11.657000	20.973315	0.000892	20.709696
7.004973	-3.011800	3.897100	-11.735000	20.976050	0.000889	20.731399
8.001122	-2.996300	3.894700	-11.669000	20.981314	0.000890	20.712481
9.003963	-3.018700	3.891500	-11.746000	20.995561	0.000889	20.703495
10.011499	-2.985800	3.892000	-11.620000	21.000556	0.000889	20.718450
11.000904	-2.994700	3.890500	-11.650000	21.000545	0.000888	20.714171
12.008815	-2.986900	3.888400	-11.614000	20.997213	0.000887	20.719848
13.007352	-3.000600	3.886900	-11.662000	21.000909	0.000886	20.721174
14.005720	-2.998200	3.884700	-11.645000	20.980814	0.000885	20.692539
15.008339	-3.007700	3.883100	-11.678000	21.016103	0.000885	20.702230
16.009622	-2.999100	3.882200	-11.643000	21.009429	0.000882	20.712625
17.008178	-2.994800	3.883800	-11.630000	21.005296	0.000883	20.702801
18.008311	-3.002600	3.879700	-11.648000	21.005624	0.000886	20.713087
19.006479	-3.000700	3.878300	-11.636000	21.028501	0.000884	20.712260
20.008155	-2.974300	3.879500	-11.537000	21.045602	0.000883	20.718461
21.011471	-3.009900	3.877400	-11.669000	21.040206	0.000880	20.682714
22.007925	-2.987400	3.878200	-11.585000	21.050052	0.000880	20.693037
23.006876	-3.008000	3.874600	-11.653000	21.059131	0.000881	20.713025
24.010999	-2.999000	3.875600	-11.622000	21.053868	0.000881	20.711554
25.012939	-2.995600	3.874600	-11.606000	21.048422	0.000878	20.717488
26.010294	-3.001100	3.873900	-11.624000	21.071711	0.000879	20.715651
27.011755	-2.993700	3.873600	-11.595000	21.081739	0.000878	20.677789
28.010443	-2.981500	3.871800	-11.542000	21.076378	0.000878	20.711311
29.008196	-3.017600	3.871100	-11.679000	21.091207	0.000879	20.698641
30.014586	-2.999200	3.871700	-11.610000	21.111967	0.000879	20.709450
31.010032	-3.009100	3.869400	-11.643000	21.118749	0.000877	20.685886
32.009985	-3.004700	3.870400	-11.628000	21.120329	0.000877	20.696002
33.010119	-3.008800	3.868800	-11.639000	21.118019	0.000877	20.686578
34.012545	-2.987700	3.870200	-11.561000	21.118700	0.000875	20.706228
35.011746	-2.995700	3.868300	-11.585000	21.136955	0.000877	20.724015
36.013027	-3.019400	3.868200	-11.678000	21.135338	0.000877	20.694895
37.012334	-3.012700	3.866000	-11.645000	21.126757	0.000876	20.704804
38.008454	-3.000900	3.867200	-11.604000	21.163037	0.000876	20.678978
39.013280	-3.003100	3.866000	-11.609000	21.164094	0.000873	20.686200
40.007435	-2.979300	3.865800	-11.516000	21.159707	0.000876	20.690821
41.011230	-2.995400	3.865800	-11.579000	21.164349	0.000874	20.698784
42.012138	-3.003600	3.864300	-11.605000	21.172151	0.000874	20.686673
43.013712	-3.002200	3.865300	-11.603000	21.170219	0.000875	20.690431
44.010681	-3.000500	3.863700	-11.592000	21.179613	0.000873	20.694139
45.014114	-3.017500	3.862200	-11.654000	21.199740	0.000875	20.678235
46.014807	-2.987900	3.865100	-11.546000	21.188267	0.000873	20.682880
47.012954	-2.983400	3.864100	-11.528000	21.206789	0.000873	20.680070
48.014845	-3.001200	3.861800	-11.589000	21.204054	0.000875	20.686818
49.013177	-3.005200	3.862100	-11.605000	21.226720	0.000872	20.684837
50.012399	-2.992100	3.862400	-11.555000	21.228361	0.000872	20.682211
51.012877	-2.995200	3.861400	-11.565000	21.241024	0.000873	20.689663
52.014813	-2.980500	3.861900	-11.510000	21.241984	0.000873	20.667862
53.012829	-2.976100	3.862000	-11.492000	21.249616	0.000873	20.700156
54.015642	-2.988700	3.860500	-11.537000	21.244196	0.000874	20.670075
55.014426	-2.991600	3.861700	-11.552000	21.253796	0.000870	20.697699
56.015121	-2.999100	3.859500	-11.574000	21.271235	0.000872	20.682428
57.014711	-3.012500	3.857000	-11.618000	21.278672	0.000874	20.682282
58.010415	-2.996300	3.860600	-11.566000	21.287677	0.000872	20.685127
59.014701	-2.998600	3.858800	-11.570000	21.294506	0.000872	20.678207
60.017095	-3.004200	3.859000	-11.591000	21.298505	0.000873	20.687425
61.012287	-3.003900	3.858500	-11.588000	21.304545	0.000871	20.694416
62.013735	-3.013000	3.857300	-11.621000	21.306647	0.000874	20.702684
63.018085	-2.997100	3.857300	-11.559000	21.315482	0.000873	20.685916
64.015070	-2.997800	3.857500	-11.563000	21.317280	0.000871	20.671593
65.015109	-3.007400	3.857100	-11.597000	21.326163	0.000871	20.698026
66.018266	-2.983400	3.857400	-11.507000	21.329505	0.000872	20.673867
67.011535	-2.998800	3.857300	-11.566000	21.345522	0.000873	20.659069
68.014213	-2.987800	3.856500	-11.521000	21.344476	0.000873	20.689320
69.016521	-3.011500	3.856000	-11.611000	21.361088	0.000873	20.678438
70.018095	-2.997300	3.855800	-11.555000	21.372170	0.000873	20.666291
71.017824	-3.016500	3.854400	-11.625000	21.375184	0.000872	20.682584
72.021718	-2.991300	3.854600	-11.528000	21.394225	0.000872	20.675556
73.022451	-2.985000	3.855300	-11.507000	21.395562	0.000872	20.661245
74.018179	-2.994500	3.854700	-11.541000	21.394991	0.000872	20.663993
75.016448	-2.983700	3.855100	-11.501000	21.418808	0.000873	20.673125
76.014444	-2.998600	3.853400	-11.554000	21.412805	0.000873	20.691302
77.014867	-2.988000	3.852000	-11.507000	21.446245	0.000873	20.670231
78.016495	-2.991200	3.853500	-11.525000	21.433900	0.000873	20.687277
79.015556	-2.998800	3.852100	-11.549000	21.433304	0.000874	20.698062
80.017990	-3.020300	3.851800	-11.632000	21.443304	0.000874	20.670607
81.020142	-3.003300	3.852400	-11.569000	21.443803	0.000874	20.688177
82.022095	-3.022900	3.850500	-11.639000	21.452308	0.000873	20.687679
83.018967	-3.010300	3.850900	-11.591000	21.455687	0.000872	20.672566
84.019920	-3.004600	3.851700	-11.572000	21.460316	0.000874	20.662497
85.018335	-3.005700	3.852000	-11.576000	21.457862	0.000872	20.680907
86.016421	-3.035200	3.850400	-11.685000	21.480340	0.000874	20.681587
87.021340	-3.043000	3.848200	-11.708000	21.501981	0.000873	20.667678
88.031618	-3.004600	3.850400	-11.568000	21.504520	0.000873	20.665477
89.022301	-2.974600	3.849700	-11.449000	21.500437	0.000876	20.664711
90.021929	-3.013100	3.849500	-11.596000	21.509999	0.000874	20.695618
91.019664	-2.991400	3.850400	-11.517000	21.513232	0.000875	20.683679
92.020740	-3.011900	3.849900	-11.595000	21.542039	0.000873	20.665087
93.025045	-3.009200	3.849300	-11.581000	21.532538	0.000875	20.685454
94.016729	-2.990300	3.849200	-11.509000	21.521360	0.000874	20.684700
95.019996	-2.992900	3.849500	-11.521000	21.563010	0.000875	20.673271
96.024436	-2.988700	3.851400	-11.509000	21.559292	0.000873	20.678560
97.031947	-3.002700	3.848200	-11.554000	21.543351	0.000875	20.682049
98.024078	-3.001300	3.847800	-11.547000	21.544639	0.000875	20.664370
99.021421	-3.013600	3.847900	-11.595000	21.545890	0.000876	20.677477
100.022666	-2.992400	3.847900	-11.513000	21.572134	0.000874	20.689040
101.019320	-3.007000	3.848100	-11.570000	21.563155	0.000874	20.683374
102.022028	-2.997500	3.846600	-11.530000	21.582242	0.000875	20.701527
103.019395	-2.974400	3.848100	-11.445000	21.589677	0.000878	20.697587
104.020716	-3.005600	3.845800	-11.558000	21.618762	0.000875	20.692079
105.026673	-2.986800	3.847700	-11.491000	21.599117	0.000876	20.674788
106.021225	-3.021400	3.845700	-11.617000	21.609674	0.000876	20.669706
107.022705	-3.010200	3.845700	-11.575000	21.616805	0.000876	20.688698
108.028782	-3.002300	3.845300	-11.543000	21.621726	0.000877	20.679396
109.027727	-3.006200	3.844300	-11.555000	21.647153	0.000877	20.695834
110.028473	-2.998700	3.845100	-11.529000	21.657333	0.000879	20.678520
111.045622	-2.998800	3.843900	-11.527000	21.666080	0.000880	20.693913
112.031677	-3.001700	3.844100	-11.537000	21.652182	0.000879	20.699445
113.028250	-2.992100	3.844200	-11.501000	21.657393	0.000878	20.689012
114.026096	-2.967200	3.845600	-11.409000	21.670501	0.000878	20.694544
115.028530	-3.007000	3.842800	-11.554000	21.683767	0.000878	20.667989
116.027171	-3.025400	3.841700	-11.621000	21.692878	0.000881	20.680901
117.026793	-3.006400	3.842200	-11.550000	21.675324	0.000881	20.699371
118.030006	-3.025700	3.843800	-11.629000	21.705014	0.000880	20.684512
119.028854	-3.011200	3.843300	-11.572000	21.692027	0.000881	20.662029
120.028748	-3.042100	3.841500	-11.685000	21.715789	0.000880	20.692451
121.024692	-3.013500	3.842500	-11.579000	21.739307	0.000883	20.679478
122.027657	-3.012100	3.841200	-11.569000	21.757711	0.000881	20.691260
123.022912	-3.020900	3.840300	-11.600000	21.764574	0.000881	20.707139
124.033071	-3.015600	3.841400	-11.583000	21.753568	0.000882	20.706555
125.027979	-3.019200	3.841100	-11.596000	21.779758	0.000880	20.676339
126.024648	-3.025000	3.839800	-11.614000	21.769687	0.000882	20.683805
127.027006	-3.015600	3.840500	-11.581000	21.794601	0.000881	20.692146
128.023723	-3.012600	3.840900	-11.570000	21.797590	0.000882	20.679014
129.026002	-2.992900	3.839400	-11.490000	21.804282	0.000884	20.689507
130.028660	-3.000500	3.839700	-11.520000	21.793192	0.000883	20.677457
131.028556	-2.991600	3.839900	-11.486000	21.803006	0.000883	20.683487
132.024910	-2.999000	3.838300	-11.510000	21.820899	0.000885	20.681956
133.030270	-2.989800	3.842500	-11.487000	21.821360	0.000882	20.686211
134.030814	-3.006100	3.839800	-11.542000	21.828199	0.000885	20.689737
135.029229	-3.006400	3.839000	-11.541000	21.846358	0.000886	20.694162
136.031819	-3.003900	3.840900	-11.536000	21.850913	0.000886	20.687816
137.031498	-3.009600	3.839000	-11.552000	21.844536	0.000887	20.693761
138.031960	-2.999400	3.839300	-11.514000	21.869619	0.000885	20.702272
139.028013	-2.985400	3.839500	-11.460000	21.848265	0.000885	20.706503
140.031723	-2.986800	3.839100	-11.466000	21.841839	0.000886	20.689638
141.032871	-3.012000	3.838000	-11.559000	21.854472	0.000886	20.697542
142.031187	-2.980800	3.839100	-11.442000	21.869848	0.000886	20.714357
143.031185	-3.012900	3.837200	-11.560000	21.896898	0.000887	20.706819
144.041956	-2.992600	3.836900	-11.481000	21.879311	0.000885	20.700119
145.036148	-2.992500	3.836600	-11.480000	21.867626	0.000887	20.708338
146.035040	-3.006000	3.836600	-11.531000	21.856609	0.000888	20.693517
147.030769	-2.998500	3.836000	-11.501000	21.869034	0.000889	20.705481
148.031659	-3.001000	3.836400	-11.511000	21.885614	0.000888	20.699316
149.035360	-3.025700	3.834400	-11.599000	21.888833	0.000890	20.696848
150.034360	-2.976400	3.837200	-11.420000	21.894420	0.000890	20.716192
151.036010	-3.000800	3.837000	-11.511000	21.916514	0.000890	20.698477
152.033840	-3.019800	3.836000	-11.581000	21.895452	0.000892	20.693042
153.036165	-3.016700	3.834200	-11.565000	21.926400	0.000893	20.694148
154.033824	-3.009400	3.834500	-11.539000	21.924020	0.000892	20.702672
155.039347	-3.003800	3.835100	-11.519000	21.953607	0.000893	20.707633
156.036311	-2.972800	3.836100	-11.403000	21.937513	0.000892	20.712860
157.037680	-2.967300	3.834600	-11.378000	21.970113	0.000895	20.707560
158.037450	-2.995400	3.834900	-11.487000	21.983715	0.000893	20.712167
159.033477	-3.000300	3.832800	-11.498000	22.012559	0.000896	20.712593
160.037349	-2.974200	3.835000	-11.405000	22.005588	0.000893	20.693758
161.036199	-2.995800	3.833600	-11.483000	22.014065	0.000897	20.702719
162.032300	-3.007200	3.833400	-11.526000	22.014016	0.000894	20.709784
163.034181	-3.004500	3.832200	-11.512000	22.033132	0.000893	20.703790
164.040843	-2.991900	3.832100	-11.464000	22.044330	0.000895	20.700300
165.036246	-2.989000	3.833300	-11.457000	22.036570	0.000896	20.711024
166.046157	-2.985900	3.832300	-11.441000	22.046795	0.000896	20.703242
167.039122	-3.009800	3.831900	-11.532000	22.040638	0.000898	20.698975
168.032830	-3.001100	3.832200	-11.499000	22.068036	0.000896	20.709334
169.037555	-3.017600	3.830400	-11.557000	22.083265	0.000899	20.702768
170.036796	-3.011900	3.831100	-11.537000	22.086592	0.000898	20.710841
171.036834	-3.004400	3.832500	-11.514000	22.092627	0.000896	20.712616
172.033895	-3.018000	3.830200	-11.559000	22.096841	0.000900	20.723474
173.041423	-3.005500	3.830600	-11.511000	22.102950	0.000898	20.706354
174.033749	-3.007500	3.831000	-11.521000	22.109107	0.000899	20.707303
175.039363	-2.998300	3.830700	-11.485000	22.139575	0.000901	20.709831
176.040191	-3.004200	3.830300	-11.505000	22.132593	0.000901	20.718488
177.039726	-2.994400	3.830200	-11.468000	22.151864	0.000901	20.705539
178.042358	-3.012100	3.829200	-11.533000	22.146666	0.000902	20.703180
179.035575	-2.982200	3.829000	-11.418000	22.163085	0.000901	20.714877
180.037938	-3.001000	3.830900	-11.496000	22.158725	0.000901	20.725686
181.041051	-3.009700	3.829200	-11.524000	22.164894	0.000901	20.725224
182.035622	-2.994400	3.829100	-11.464000	22.191001	0.000904	20.703946
183.034471	-3.001600	3.828500	-11.491000	22.195676	0.000904	20.706256
184.040769	-3.004900	3.829200	-11.506000	22.201371	0.000905	20.713381
185.040220	-3.016200	3.828300	-11.545000	22.221079	0.000905	20.714621
186.036421	-2.969800	3.828700	-11.369000	22.233585	0.000903	20.715289
187.041680	-2.984900	3.829100	-11.428000	22.229190	0.000904	20.725588
188.036413	-3.018800	3.826200	-11.549000	22.220824	0.000906	20.714839
189.039955	-2.977500	3.828500	-11.398000	22.217654	0.000908	20.704079
190.043830	-3.011500	3.826500	-11.522000	22.252674	0.000908	20.697890
191.046201	-2.997800	3.827400	-11.473000	22.252868	0.000906	20.721320
192.038109	-2.999200	3.827200	-11.477000	22.253342	0.000906	20.737917
193.040871	-3.005800	3.826300	-11.500000	22.258647	0.000908	20.710985
194.044075	-2.995800	3.826300	-11.462000	22.259545	0.000909	20.713307
195.043862	-2.998800	3.825300	-11.470000	22.249164	0.000908	20.707654
196.044775	-3.022800	3.825100	-11.562000	22.274360	0.000910	20.736676
197.038967	-2.991800	3.826700	-11.448000	22.279786	0.000909	20.715556
198.042862	-3.006000	3.825100	-11.497000	22.280309	0.000911	20.735520
199.045090	-2.992100	3.824500	-11.443000	22.292948	0.000911	20.724468
200.044183	-2.981800	3.825100	-11.404000	22.302601	0.000911	20.716589
201.047561	-2.995400	3.824600	-11.453000	22.289852	0.000911	20.732748
202.047206	-2.998500	3.825000	-11.468000	22.315120	0.000912	20.728651
203.043766	-3.003000	3.824700	-11.484000	22.333647	0.000913	20.739144
204.041179	-2.990800	3.824300	-11.436000	22.346092	0.000912	20.735958
205.048154	-2.990000	3.824500	-11.433000	22.343591	0.000914	20.731082
206.046404	-3.013900	3.823900	-11.522000	22.344623	0.000914	20.720261
207.044359	-2.992800	3.823300	-11.442000	22.351252	0.000915	20.728322
208.044477	-3.003400	3.823200	-11.482000	22.357590	0.000913	20.723289
209.050098	-2.992800	3.824500	-11.445000	22.385782	0.000916	20.737770
210.047780	-3.014400	3.822300	-11.521000	22.349844	0.000917	20.736870
211.046556	-3.003400	3.822900	-11.481000	22.369294	0.000916	20.735484
212.044932	-3.000200	3.821400	-11.463000	22.365931	0.000918	20.711252
213.047767	-3.004300	3.823000	-11.484000	22.378145	0.000919	20.731070
214.045391	-2.975000	3.822100	-11.370000	22.417141	0.000920	20.743569
215.048503	-3.010700	3.822800	-11.509000	22.429209	0.000918	20.723410
216.047688	-3.010300	3.820600	-11.500000	22.446048	0.000918	20.730790
217.048579	-2.980900	3.821700	-11.391000	22.430775	0.000919	20.730669
218.048982	-3.009500	3.820900	-11.498000	22.455566	0.000920	20.734633
219.047232	-3.014200	3.820300	-11.515000	22.460361	0.000920	20.734219
220.048000	-2.997100	3.820100	-11.448000	22.476106	0.000921	20.735763
221.047723	-2.995200	3.819700	-11.440000	22.461951	0.000919	20.743873
222.050334	-3.010000	3.819500	-11.496000	22.495299	0.000920	20.740760
223.048638	-3.027800	3.817500	-11.557000	22.458685	0.000922	20.736809
224.047303	-2.981300	3.820000	-11.387000	22.466079	0.000923	20.745162
225.055660	-2.976000	3.819400	-11.364000	22.499367	0.000924	20.736773
226.048959	-2.988100	3.818700	-11.410000	22.487190	0.000923	20.730268
227.051977	-3.013800	3.817700	-11.505000	22.507573	0.000925	20.759691
228.061685	-3.001400	3.817900	-11.456000	22.515221	0.000925	20.731787
229.054074	-3.008600	3.817500	-11.483000	22.523440	0.000926	20.758037
230.049821	-2.990700	3.819200	-11.420000	22.533273	0.000924	20.751764
231.063715	-2.997100	3.817900	-11.441000	22.546359	0.000925	20.727411
232.057250	-2.980700	3.818200	-11.380000	22.548629	0.000927	20.749126
233.056189	-2.981600	3.818400	-11.384000	22.554589	0.000929	20.750353
234.049989	-3.003400	3.818100	-11.467000	22.556276	0.000926	20.753940
235.051988	-2.976100	3.817400	-11.360000	22.552611	0.000927	20.715653
236.050450	-3.027300	3.815000	-11.548000	22.559809	0.000929	20.751314
237.051772	-2.987700	3.816000	-11.400000	22.564398	0.000928	20.745952
238.052432	-2.990700	3.816700	-11.413000	22.574303	0.000929	20.738329
239.050503	-2.981300	3.815700	-11.375000	22.586940	0.000930	20.747193
240.051189	-2.984800	3.816300	-11.389000	22.574376	0.000931	20.752628
241.052274	-2.991500	3.815800	-11.414000	22.590533	0.000930	20.744153
242.053447	-3.003400	3.815400	-11.458000	22.564762	0.000930	20.747740
243.052040	-3.002500	3.815400	-11.455000	22.589550	0.000931	20.753126
244.053552	-3.002400	3.815000	-11.453000	22.599018	0.000933	20.767351
245.053590	-3.003500	3.813500	-11.452000	22.595061	0.000933	20.772397
246.052950	-3.012900	3.814000	-11.490000	22.605075	0.000933	20.763935
247.054979	-3.025800	3.812800	-11.536000	22.614968	0.000933	20.761989
248.057823	-2.992800	3.814700	-11.415000	22.646831	0.000935	20.764980
249.053796	-2.978100	3.814900	-11.360000	22.633528	0.000934	20.763983
250.054683	-3.004000	3.814500	-11.457000	22.655376	0.000937	20.754573
251.054279	-3.000600	3.813600	-11.442000	22.666143	0.000935	20.753503
252.054851	-2.985300	3.813100	-11.383000	22.670075	0.000937	20.749381
253.057878	-2.999900	3.812400	-11.435000	22.685296	0.000938	20.764154
254.054042	-2.997000	3.813500	-11.428000	22.683792	0.000938	20.756956
255.056350	-3.005900	3.811900	-11.457000	22.695213	0.000939	20.770294
256.064040	-3.015100	3.811000	-11.489000	22.692700	0.000939	20.788166
257.056036	-2.989100	3.813100	-11.396000	22.687311	0.000938	20.753844
258.056159	-2.988500	3.812500	-11.392000	22.675064	0.000940	20.774293
259.055583	-3.010600	3.811100	-11.473000	22.679227	0.000939	20.752858
260.057221	-2.997200	3.810600	-11.420000	22.678123	0.000939	20.756494
261.055765	-3.001800	3.809200	-11.433000	22.669140	0.000941	20.783059
262.058878	-2.984000	3.809500	-11.367000	22.691474	0.000941	20.776506
263.057407	-2.994500	3.809900	-11.408000	22.694654	0.000941	20.788700
264.056658	-2.993600	3.809900	-11.404000	22.702714	0.000943	20.777807
265.055667	-2.979900	3.809500	-11.349000	22.728444	0.000943	20.777977
266.056731	-2.989200	3.810200	-11.387000	22.759054	0.000945	20.760275
267.058007	-2.971200	3.809600	-11.318000	22.755656	0.000944	20.758767
268.062957	-2.997400	3.808600	-11.414000	22.752864	0.000945	20.764505
269.057415	-3.010300	3.809000	-11.465000	22.752609	0.000946	20.781794
270.059856	-2.995300	3.808800	-11.408000	22.758872	0.000946	20.763411
271.059864	-3.008900	3.807300	-11.455000	22.733238	0.000946	20.776615
272.064476	-3.039300	3.806400	-11.568000	22.728808	0.000947	20.769332
