LabVIEW Measurement	
Writer_Version	2
Reader_Version	2
Separator	Tab
Decimal_Separator	.
Multi_Headings	No
X_Columns	One
Time_Pref	Absolute
Operator	admin
Description	Clolumns are: time, Current, Voltage, Power, Battery Temp, and Chamber Temp
Date	2024/08/16
Time	13:06:06.104549407958984375
***End_of_Header***	
	
Channels	6						
Samples	1	1	1	1	1	1	
Date	2024/09/06	2024/09/06	2024/09/06	2024/09/06	2024/09/06	2024/09/06	
Time	11:10:08.1351232528686523437	11:10:08.1401209831237792969	11:10:08.1485400199890136719	11:10:08.1143817901611328125	11:10:08.1143817901611328125	11:10:08.1143817901611328125	
X_Dimension	Time	Time	Time	Time	Time	Time	
X0	0.0000000000000000E+0	0.0000000000000000E+0	0.0000000000000000E+0	0.0000000000000000E+0	0.0000000000000000E+0	0.0000000000000000E+0	
Delta_X	1.000000	1.000000	1.000000	1.000000	1.000000	1.000000	
***End_of_Header***							
X_Value	Untitled	Untitled 1	Untitled 2	Untitled 3	Untitled 4	Untitled 5	Comment
0.000000	0.028503	4.100900	0.116870	21.008898	0.000926	20.850549
0.995961	-3.030500	3.927900	-11.903000	21.009248	0.000925	20.848054
1.997386	-3.010600	3.921600	-11.806000	21.010047	0.000923	20.869715
2.996972	-3.000800	3.916400	-11.751000	21.020377	0.000923	20.874357
3.997435	-3.034000	3.911900	-11.868000	21.021002	0.000922	20.865025
4.996614	-3.015200	3.909000	-11.785000	21.004882	0.000918	20.863601
5.994221	-3.001400	3.906100	-11.721000	21.016262	0.000919	20.871663
6.998504	-2.984800	3.904800	-11.654000	21.037145	0.000919	20.877378
7.996675	-2.984000	3.902600	-11.645000	21.011521	0.000919	20.883990
8.996912	-2.980300	3.900000	-11.623000	21.026368	0.000917	20.854272
9.999784	-2.987600	3.899100	-11.648000	21.029411	0.000916	20.848781
10.997311	-2.982000	3.896000	-11.617000	21.044482	0.000916	20.874284
11.999012	-2.993400	3.894200	-11.655000	21.039366	0.000915	20.849729
13.001217	-3.000900	3.893700	-11.683000	21.043161	0.000914	20.855421
13.997402	-3.018400	3.890500	-11.742000	21.061374	0.000915	20.849456
15.001824	-3.009600	3.891200	-11.709000	21.054836	0.000915	20.877055
16.008408	-3.003700	3.891000	-11.687000	21.049148	0.000912	20.879425
16.999166	-3.009600	3.887700	-11.698000	21.056760	0.000913	20.877556
18.000765	-2.994200	3.888200	-11.640000	21.065367	0.000914	20.862458
19.004730	-3.007300	3.886500	-11.686000	21.076496	0.000912	20.868848
20.002568	-2.999400	3.886500	-11.656000	21.101843	0.000913	20.868597
21.007946	-3.006000	3.883300	-11.671000	21.090692	0.000913	20.859340
22.004307	-2.993200	3.884500	-11.625000	21.093435	0.000912	20.864928
23.001292	-2.981800	3.883300	-11.578000	21.091936	0.000910	20.897566
24.001817	-3.003500	3.882400	-11.660000	21.112872	0.000910	20.875361
25.006898	-2.998600	3.879500	-11.630000	21.126093	0.000909	20.880051
26.001101	-3.016700	3.880100	-11.704000	21.116339	0.000908	20.880252
27.001154	-2.991900	3.881600	-11.613000	21.109552	0.000906	20.873463
28.004041	-3.017500	3.879200	-11.705000	21.123675	0.000906	20.871469
29.001343	-3.007700	3.879200	-11.667000	21.151818	0.000907	20.875912
30.003906	-3.024000	3.876000	-11.720000	21.152667	0.000906	20.887192
31.005186	-3.001500	3.877900	-11.638000	21.140591	0.000904	20.883647
32.000074	-2.989600	3.878100	-11.592000	21.146803	0.000906	20.886067
33.001446	-3.000300	3.876400	-11.629000	21.156034	0.000904	20.897198
34.002966	-3.002500	3.874900	-11.633000	21.163147	0.000903	20.876813
35.000834	-3.011400	3.874500	-11.667000	21.168959	0.000904	20.897324
36.000986	-2.993000	3.875400	-11.598000	21.174823	0.000904	20.874269
37.004728	-3.023300	3.873700	-11.711000	21.179263	0.000905	20.890088
38.002759	-3.006100	3.874400	-11.646000	21.196803	0.000905	20.873496
39.002434	-3.012600	3.873000	-11.665000	21.202091	0.000903	20.893010
40.003797	-2.993700	3.871900	-11.589000	21.203215	0.000902	20.889867
41.001990	-2.984700	3.873000	-11.559000	21.211923	0.000902	20.861596
42.002787	-3.003500	3.871600	-11.627000	21.220132	0.000904	20.892565
43.009498	-3.004200	3.872000	-11.631000	21.223601	0.000902	20.886553
44.003955	-3.013300	3.871700	-11.664000	21.241863	0.000902	20.879692
45.003627	-3.015300	3.870500	-11.669000	21.238793	0.000901	20.898430
46.006716	-2.990700	3.869500	-11.571000	21.260749	0.000901	20.895739
47.003426	-2.990200	3.871500	-11.575000	21.255359	0.000902	20.883710
48.004523	-2.999400	3.869600	-11.606000	21.266412	0.000900	20.894292
49.004766	-3.002300	3.867800	-11.611000	21.266360	0.000900	20.889499
50.003451	-3.000800	3.867700	-11.604000	21.270705	0.000901	20.890052
51.002398	-3.005600	3.868100	-11.624000	21.272524	0.000899	20.906569
52.003864	-3.007500	3.868100	-11.633000	21.296100	0.000899	20.889379
53.003821	-2.979700	3.869400	-11.528000	21.293856	0.000900	20.906574
54.003224	-2.992100	3.867300	-11.570000	21.300440	0.000898	20.879023
55.007163	-3.018000	3.867700	-11.671000	21.316779	0.000899	20.894895
56.004380	-3.019800	3.866500	-11.674000	21.336784	0.000900	20.887408
57.004874	-3.011600	3.866100	-11.641000	21.331124	0.000898	20.893599
58.009076	-3.009900	3.865200	-11.632000	21.331449	0.000899	20.887287
59.003824	-3.008200	3.865200	-11.627000	21.324340	0.000900	20.919526
60.003827	-2.990100	3.866600	-11.560000	21.354170	0.000900	20.892001
61.007541	-2.992800	3.866000	-11.570000	21.362875	0.000899	20.918725
62.006279	-3.018200	3.863500	-11.660000	21.372006	0.000900	20.900835
63.003866	-3.006000	3.864900	-11.616000	21.384603	0.000898	20.874086
64.006659	-3.011300	3.863500	-11.632000	21.385774	0.000899	20.908920
65.004847	-2.990300	3.862600	-11.549000	21.389640	0.000898	20.905201
66.005694	-2.993800	3.864600	-11.568000	21.408544	0.000899	20.913683
67.008963	-2.993900	3.863200	-11.565000	21.398868	0.000899	20.906847
68.008545	-2.995600	3.864100	-11.574000	21.445309	0.000898	20.912062
69.008242	-3.007000	3.863700	-11.617000	21.421615	0.000898	20.908269
70.011673	-3.008000	3.861400	-11.614000	21.447629	0.000899	20.896367
71.007465	-2.987400	3.862900	-11.539000	21.440144	0.000899	20.920644
72.007877	-3.005200	3.862700	-11.607000	21.431614	0.000898	20.901205
73.016906	-3.001200	3.861300	-11.588000	21.455958	0.000900	20.919871
74.011186	-2.997300	3.860500	-11.570000	21.466607	0.000898	20.903975
75.013114	-3.012000	3.859900	-11.625000	21.479151	0.000899	20.913681
76.014438	-3.011600	3.858900	-11.618000	21.484662	0.000898	20.904971
77.010683	-2.986700	3.860200	-11.529000	21.483240	0.000898	20.916349
78.013197	-3.008100	3.859600	-11.609000	21.496360	0.000899	20.929949
79.016166	-2.987000	3.860200	-11.530000	21.514267	0.000897	20.911834
80.013990	-3.017800	3.856800	-11.638000	21.513046	0.000897	20.908716
81.012681	-3.008100	3.858100	-11.605000	21.521849	0.000896	20.928902
82.016221	-2.987400	3.858300	-11.525000	21.537310	0.000897	20.886530
83.013415	-2.984000	3.860500	-11.518000	21.550079	0.000897	20.921589
84.017717	-3.003800	3.859500	-11.592000	21.555840	0.000896	20.913604
85.018575	-3.001300	3.857500	-11.576000	21.557636	0.000899	20.932943
86.015858	-3.013700	3.857700	-11.624000	21.559908	0.000898	20.913408
87.016729	-3.003300	3.857600	-11.585000	21.560032	0.000896	20.926807
88.017586	-3.006000	3.857100	-11.593000	21.586418	0.000896	20.929977
89.024913	-3.014000	3.857100	-11.623000	21.582454	0.000895	20.929803
90.018233	-2.990800	3.857800	-11.537000	21.587117	0.000897	20.925935
91.019548	-2.991000	3.856700	-11.534000	21.602106	0.000897	20.925762
92.017715	-3.017200	3.856400	-11.634000	21.613203	0.000895	20.931649
93.017849	-3.006700	3.856900	-11.596000	21.604349	0.000895	20.917575
94.018721	-3.008100	3.855100	-11.596000	21.608268	0.000895	20.918178
95.018131	-2.991900	3.855900	-11.535000	21.607196	0.000896	20.927062
96.016863	-3.006400	3.855900	-11.591000	21.634705	0.000896	20.921874
97.020232	-2.995400	3.855500	-11.547000	21.625553	0.000896	20.909398
98.018448	-2.997600	3.856100	-11.558000	21.640891	0.000897	20.922375
99.019515	-3.014600	3.854500	-11.619000	21.654758	0.000898	20.923924
100.019544	-3.004600	3.854000	-11.579000	21.652042	0.000897	20.928317
101.018995	-3.005900	3.854500	-11.584000	21.676657	0.000897	20.910279
102.029857	-2.981500	3.855600	-11.494000	21.683513	0.000897	20.898650
103.024899	-2.990200	3.856600	-11.530000	21.673144	0.000899	20.927624
104.030691	-2.999000	3.852400	-11.552000	21.683867	0.000897	20.917969
105.019914	-2.991800	3.853900	-11.529000	21.692222	0.000898	20.906416
106.021958	-2.991400	3.854200	-11.528000	21.693720	0.000898	20.902226
107.020327	-3.017000	3.853500	-11.623000	21.703749	0.000896	20.917951
108.021608	-2.995400	3.854400	-11.545000	21.708660	0.000897	20.919073
109.034406	-2.964600	3.853600	-11.422000	21.715295	0.000897	20.913386
110.022113	-2.999800	3.852300	-11.555000	21.722627	0.000898	20.917404
111.021926	-3.014900	3.852100	-11.613000	21.730709	0.000896	20.908424
112.022059	-2.986700	3.851800	-11.502000	21.722109	0.000898	20.895076
113.023731	-2.999100	3.852100	-11.552000	21.707796	0.000899	20.883598
114.023020	-2.995200	3.851700	-11.535000	21.734355	0.000901	20.891685
115.024856	-3.001300	3.851600	-11.558000	21.744081	0.000900	20.886247
116.022871	-3.019300	3.851000	-11.625000	21.735580	0.000900	20.901445
117.026748	-3.003900	3.851500	-11.568000	21.736480	0.000900	20.896657
118.023875	-2.996700	3.850800	-11.539000	21.743765	0.000901	20.904895
119.024494	-3.002700	3.850300	-11.560000	21.761297	0.000899	20.893519
120.025723	-2.995000	3.850300	-11.530000	21.753047	0.000899	20.892849
121.025465	-3.034100	3.849000	-11.677000	21.752573	0.000901	20.882892
122.024276	-3.013200	3.849000	-11.596000	21.755544	0.000900	20.883021
123.024633	-3.004000	3.850500	-11.565000	21.769159	0.000900	20.895224
124.027274	-3.013200	3.848500	-11.594000	21.750836	0.000901	20.893007
125.026506	-3.033000	3.848800	-11.672000	21.767095	0.000901	20.858548
126.024355	-3.023000	3.848400	-11.632000	21.801332	0.000903	20.888544
127.028303	-3.017900	3.848700	-11.614000	21.805501	0.000901	20.896035
128.037097	-2.999100	3.848600	-11.539000	21.808743	0.000901	20.867988
129.025137	-3.014600	3.849000	-11.602000	21.809769	0.000902	20.873757
130.030839	-2.998700	3.848900	-11.541000	21.816826	0.000903	20.888405
131.026097	-2.974800	3.849200	-11.449000	21.832263	0.000903	20.872563
132.026711	-2.994300	3.848400	-11.522000	21.828426	0.000904	20.881524
133.030742	-3.010500	3.847000	-11.580000	21.848650	0.000904	20.871895
134.027933	-3.004400	3.848400	-11.560000	21.855083	0.000905	20.880230
135.028109	-3.005600	3.847200	-11.561000	21.883707	0.000905	20.872371
136.031147	-2.997700	3.847300	-11.531000	21.867030	0.000906	20.861844
137.028601	-3.013100	3.847100	-11.590000	21.896876	0.000904	20.870381
138.028694	-2.990700	3.847200	-11.504000	21.893012	0.000906	20.847548
139.031186	-3.008800	3.846300	-11.571000	21.899247	0.000907	20.848573
140.032650	-3.010300	3.845600	-11.575000	21.888303	0.000907	20.867963
141.030024	-2.991100	3.847000	-11.505000	21.904860	0.000908	20.888802
142.031188	-2.983000	3.845900	-11.471000	21.896060	0.000906	20.869090
143.031741	-2.994800	3.847400	-11.520000	21.886212	0.000907	20.849750
144.031680	-3.016900	3.844900	-11.598000	21.899604	0.000909	20.856043
145.034027	-2.993900	3.844900	-11.509000	21.904741	0.000907	20.856916
146.033165	-2.986200	3.845800	-11.483000	21.909954	0.000909	20.867824
147.033479	-3.026000	3.843000	-11.627000	21.908233	0.000908	20.870842
148.033889	-3.012200	3.844000	-11.577000	21.928530	0.000908	20.850383
149.033477	-3.024100	3.843000	-11.621000	21.926260	0.000910	20.829620
150.033634	-3.018200	3.844200	-11.601000	21.933018	0.000911	20.873367
151.033875	-3.009900	3.842800	-11.564000	21.975426	0.000910	20.866032
152.040719	-3.005500	3.843700	-11.551000	21.967200	0.000911	20.869651
153.035329	-2.998800	3.843800	-11.526000	21.990707	0.000912	20.863311
154.039847	-3.025200	3.842300	-11.623000	21.985552	0.000911	20.854831
155.040278	-2.998100	3.843500	-11.522000	21.980190	0.000911	20.853732
156.034843	-2.992700	3.844500	-11.504000	21.997470	0.000913	20.851589
157.037213	-2.995200	3.843800	-11.511000	21.999065	0.000914	20.856030
158.039456	-2.999800	3.843200	-11.528000	22.001359	0.000913	20.850266
159.037650	-2.984700	3.841900	-11.466000	22.022199	0.000913	20.850740
160.040931	-3.005300	3.841100	-11.542000	22.036935	0.000913	20.840836
161.044351	-2.992000	3.842500	-11.495000	22.049373	0.000914	20.847598
162.037775	-3.002000	3.841700	-11.531000	22.054561	0.000914	20.874601
163.043610	-3.001100	3.841900	-11.528000	22.050048	0.000912	20.854911
164.043049	-2.990800	3.843000	-11.493000	22.056257	0.000914	20.852118
165.038867	-2.987400	3.841400	-11.475000	22.055759	0.000914	20.854464
166.043690	-2.991100	3.840900	-11.487000	22.072239	0.000913	20.847729
167.043866	-2.993200	3.841100	-11.496000	22.085778	0.000915	20.833309
168.039240	-2.992200	3.841200	-11.492000	22.064289	0.000914	20.833607
169.043921	-3.013300	3.839100	-11.567000	22.095105	0.000915	20.835533
170.043847	-3.015000	3.839000	-11.574000	22.098698	0.000917	20.830122
171.039424	-3.007100	3.840500	-11.547000	22.100342	0.000916	20.842673
172.042414	-3.009900	3.839800	-11.557000	22.094584	0.000916	20.831693
173.042958	-2.993500	3.840500	-11.496000	22.138409	0.000916	20.840007
174.042545	-2.990900	3.839900	-11.484000	22.097681	0.000918	20.844751
175.046554	-3.016600	3.837600	-11.576000	22.122111	0.000917	20.831276
176.048034	-3.015800	3.838800	-11.577000	22.146812	0.000917	20.838937
177.043869	-3.002600	3.839600	-11.527000	22.133904	0.000919	20.835022
178.050986	-3.025000	3.837100	-11.605000	22.159828	0.000919	20.838217
179.048315	-2.971100	3.838200	-11.403000	22.163046	0.000919	20.840965
180.044885	-2.994200	3.838100	-11.490000	22.167408	0.000919	20.845332
181.048376	-2.992500	3.837900	-11.483000	22.180596	0.000918	20.826294
182.045251	-2.976400	3.839700	-11.427000	22.189198	0.000920	20.801716
183.045430	-3.010400	3.837500	-11.551000	22.223344	0.000919	20.834007
184.047294	-3.014100	3.836200	-11.562000	22.191965	0.000921	20.820607
185.047163	-3.000400	3.836100	-11.509000	22.210638	0.000922	20.838354
186.045462	-3.041400	3.836600	-11.667000	22.220384	0.000923	20.826302
187.047263	-3.000200	3.836000	-11.508000	22.241645	0.000922	20.829572
188.047181	-3.000100	3.837500	-11.512000	22.229434	0.000924	20.837260
189.047318	-3.005200	3.835300	-11.525000	22.224924	0.000924	20.826580
190.049924	-2.997300	3.835000	-11.493000	22.212063	0.000925	20.823187
191.047514	-3.003600	3.836500	-11.522000	22.242325	0.000924	20.824088
192.049045	-2.990300	3.835900	-11.469000	22.228167	0.000926	20.829353
193.048555	-2.982200	3.836700	-11.440000	22.241801	0.000927	20.827832
194.049049	-3.014700	3.835400	-11.560000	22.259747	0.000926	20.837265
195.049272	-3.008600	3.834400	-11.536000	22.247861	0.000927	20.814933
196.053466	-3.000600	3.833900	-11.503000	22.275748	0.000928	20.800656
197.050330	-3.005300	3.834900	-11.524000	22.279140	0.000928	20.826812
198.050550	-3.007200	3.834300	-11.529000	22.299254	0.000930	20.809494
199.052282	-2.987900	3.833600	-11.452000	22.286191	0.000928	20.811587
200.049768	-3.008200	3.833700	-11.532000	22.266379	0.000928	20.824940
201.053123	-3.006800	3.833700	-11.526000	22.279239	0.000928	20.828807
202.053034	-3.007700	3.833900	-11.530000	22.277796	0.000930	20.817406
203.052194	-3.011800	3.834300	-11.547000	22.302668	0.000929	20.799162
204.051399	-3.004800	3.832200	-11.513000	22.287989	0.000932	20.837094
205.053528	-3.000400	3.832800	-11.499000	22.322705	0.000931	20.823967
206.052641	-2.976500	3.832200	-11.406000	22.302071	0.000932	20.828435
207.057956	-3.001300	3.832700	-11.501000	22.290505	0.000933	20.829182
208.055430	-3.003100	3.832900	-11.509000	22.310765	0.000932	20.827658
209.052850	-2.997700	3.831200	-11.483000	22.302842	0.000933	20.807396
210.054042	-2.987600	3.831900	-11.447000	22.306379	0.000934	20.824689
211.059966	-2.992300	3.832100	-11.465000	22.306253	0.000933	20.817924
212.053397	-2.995300	3.831300	-11.475000	22.307827	0.000935	20.817130
213.053248	-3.010500	3.830200	-11.530000	22.328090	0.000934	20.820824
214.055763	-3.001400	3.831600	-11.498000	22.331749	0.000932	20.808841
215.056995	-2.992400	3.830600	-11.462000	22.350992	0.000934	20.803454
216.053019	-3.002000	3.829700	-11.495000	22.341321	0.000937	20.810840
217.056435	-3.018800	3.829100	-11.558000	22.367391	0.000936	20.823195
218.052972	-2.974700	3.832500	-11.400000	22.338130	0.000936	20.798636
219.058023	-3.012300	3.829200	-11.534000	22.364374	0.000938	20.817803
220.056342	-2.993300	3.829500	-11.461000	22.388922	0.000937	20.817254
221.053238	-3.008000	3.829700	-11.518000	22.391441	0.000937	20.810768
222.055240	-2.982900	3.828600	-11.419000	22.404721	0.000939	20.810316
223.056419	-2.987300	3.829400	-11.438000	22.405095	0.000939	20.812587
224.055767	-3.015000	3.827700	-11.539000	22.395130	0.000939	20.793599
225.055965	-2.985700	3.828300	-11.429000	22.395102	0.000941	20.793572
226.055079	-2.988600	3.828900	-11.442000	22.395477	0.000939	20.812912
227.053580	-3.010700	3.827300	-11.521000	22.407091	0.000943	20.811267
228.055066	-3.013200	3.826400	-11.529000	22.411528	0.000940	20.801012
229.062854	-3.006000	3.828100	-11.507000	22.408335	0.000942	20.807771
230.056922	-3.023900	3.826200	-11.568000	22.429939	0.000942	20.821819
231.056504	-2.986800	3.828100	-11.432000	22.428472	0.000945	20.807548
232.057953	-2.987200	3.828100	-11.435000	22.406317	0.000942	20.783465
233.059850	-2.990200	3.825900	-11.439000	22.423440	0.000947	20.802983
234.055198	-2.987700	3.828400	-11.437000	22.416987	0.000946	20.790831
235.060019	-3.003200	3.827200	-11.491000	22.442828	0.000945	20.788259
236.060202	-3.004200	3.827100	-11.495000	22.429920	0.000945	20.794299
237.056866	-3.008200	3.825300	-11.506000	22.447163	0.000945	20.803981
238.058257	-2.983500	3.827000	-11.416000	22.441831	0.000946	20.808598
239.058279	-2.990900	3.825900	-11.442000	22.446191	0.000947	20.803482
240.057442	-3.004200	3.824400	-11.488000	22.463886	0.000948	20.806503
241.061041	-2.978900	3.824500	-11.392000	22.459454	0.000948	20.796375
242.058440	-3.001000	3.826000	-11.481000	22.472309	0.000948	20.817783
243.060229	-3.017400	3.823100	-11.534000	22.442010	0.000948	20.790759
244.062366	-3.001700	3.822900	-11.474000	22.453321	0.000951	20.801613
245.061766	-2.984400	3.824600	-11.413000	22.455738	0.000950	20.803559
246.060165	-2.995500	3.823200	-11.451000	22.465383	0.000950	20.808477
247.062129	-2.993900	3.824700	-11.450000	22.461595	0.000950	20.794252
248.061909	-3.011100	3.822700	-11.509000	22.497355	0.000950	20.797822
249.061530	-3.005400	3.823900	-11.491000	22.511732	0.000952	20.797996
250.065610	-2.987100	3.822400	-11.417000	22.533285	0.000953	20.801089
251.065389	-2.987100	3.822600	-11.418000	22.553194	0.000952	20.803010
252.064378	-2.992200	3.821900	-11.435000	22.530196	0.000953	20.800841
253.068075	-3.008000	3.822000	-11.495000	22.537592	0.000955	20.788334
254.076755	-2.982000	3.823300	-11.400000	22.525035	0.000954	20.791405
255.063790	-2.997300	3.822900	-11.457000	22.530791	0.000954	20.779151
256.067336	-3.003800	3.821200	-11.476000	22.548333	0.000954	20.781072
257.064987	-3.022300	3.821200	-11.547000	22.545267	0.000956	20.810244
258.063500	-3.018200	3.820300	-11.530000	22.572846	0.000956	20.788554
259.066774	-2.993500	3.821200	-11.438000	22.579075	0.000958	20.792422
260.063501	-2.997400	3.821600	-11.452000	22.580325	0.000957	20.811691
261.064195	-2.994800	3.819600	-11.438000	22.578304	0.000959	20.791650
262.068666	-2.999900	3.820500	-11.460000	22.608776	0.000958	20.785186
263.066095	-3.014500	3.819200	-11.512000	22.596019	0.000958	20.794694
264.065722	-3.016600	3.819600	-11.520000	22.594398	0.000958	20.775526
265.066269	-3.004600	3.819800	-11.476000	22.611765	0.000960	20.782015
266.065064	-2.997300	3.819100	-11.445000	22.614278	0.000958	20.782162
267.066746	-2.994600	3.818700	-11.434000	22.609096	0.000962	20.781238
268.069087	-3.004000	3.818700	-11.471000	22.622648	0.000961	20.795761
269.067163	-3.010200	3.818400	-11.493000	22.610293	0.000962	20.786705
270.071154	-2.998600	3.819300	-11.451000	22.625764	0.000961	20.792717
271.072891	-2.992200	3.819300	-11.426000	22.620678	0.000962	20.795210
272.070502	-3.005500	3.816800	-11.471000	22.642503	0.000965	20.795259
