LabVIEW Measurement	
Writer_Version	2
Reader_Version	2
Separator	Tab
Decimal_Separator	.
Multi_Headings	No
X_Columns	One
Time_Pref	Absolute
Operator	admin
Description	Clolumns are: time, Current, Voltage, Power, Battery Temp, and Chamber Temp
Date	2024/08/16
Time	13:06:06.104549407958984375
***End_of_Header***	
	
Channels	6						
Samples	1	1	1	1	1	1	
Date	2024/09/04	2024/09/04	2024/09/04	2024/09/04	2024/09/04	2024/09/04	
Time	01:41:47.0254607200622558594	01:41:47.0322408676147460938	01:41:47.03812408447265625	01:41:47.0055561065673828125	01:41:47.0055561065673828125	01:41:47.0055561065673828125	
X_Dimension	Time	Time	Time	Time	Time	Time	
X0	0.0000000000000000E+0	0.0000000000000000E+0	0.0000000000000000E+0	0.0000000000000000E+0	0.0000000000000000E+0	0.0000000000000000E+0	
Delta_X	1.000000	1.000000	1.000000	1.000000	1.000000	1.000000	
***End_of_Header***							
X_Value	Untitled	Untitled 1	Untitled 2	Untitled 3	Untitled 4	Untitled 5	Comment
0.000000	-0.005424	4.099600	-0.022225	20.969304	0.000929	20.727497
0.995663	-2.995100	3.934500	-11.783000	20.969355	0.000928	20.725176
1.999189	-3.012000	3.926200	-11.825000	20.965837	0.000928	20.734935
3.001333	-3.001600	3.922100	-11.772000	20.939513	0.000926	20.720460
3.998290	-3.004700	3.916500	-11.767000	20.952639	0.000925	20.728847
5.000758	-3.008500	3.913100	-11.772000	20.966661	0.000925	20.716792
6.000271	-2.996400	3.910900	-11.718000	20.963219	0.000925	20.730420
6.998425	-2.979400	3.908500	-11.644000	20.971528	0.000925	20.754378
8.001822	-3.002800	3.904900	-11.725000	20.977268	0.000923	20.737833
9.001071	-2.979900	3.904400	-11.633000	20.960551	0.000924	20.719690
9.998458	-2.981900	3.903200	-11.637000	20.949597	0.000922	20.714424
11.001506	-2.991900	3.900400	-11.669000	20.969534	0.000920	20.727727
12.003770	-2.999300	3.899300	-11.693000	20.971505	0.000918	20.729224
12.998826	-3.002300	3.899300	-11.705000	20.968337	0.000918	20.730322
14.003179	-3.000900	3.896600	-11.692000	20.977794	0.000920	20.717021
15.002573	-3.002500	3.894800	-11.693000	20.980041	0.000919	20.745823
15.999903	-2.995400	3.894000	-11.663000	20.971907	0.000916	20.715400
17.001401	-2.993100	3.893300	-11.653000	21.000601	0.000916	20.715176
18.001007	-2.990000	3.891200	-11.633000	20.996335	0.000915	20.716124
19.000032	-3.006400	3.891800	-11.700000	21.000029	0.000914	20.719819
20.007575	-3.008500	3.889700	-11.700000	21.014226	0.000915	20.719794
21.000692	-3.018800	3.888300	-11.737000	21.008512	0.000915	20.712182
22.000531	-2.984700	3.889500	-11.607000	21.036383	0.000912	20.707816
23.003966	-2.999500	3.887100	-11.658000	21.017571	0.000912	20.709863
24.006242	-3.001900	3.886400	-11.666000	21.037407	0.000910	20.706469
25.000377	-2.985400	3.886200	-11.600000	21.049034	0.000911	20.725686
26.002904	-3.016200	3.884200	-11.714000	21.059862	0.000912	20.729405
27.001412	-2.997400	3.883700	-11.640000	21.056394	0.000911	20.718824
27.999655	-2.989500	3.884700	-11.612000	21.039030	0.000911	20.726112
29.007030	-2.997500	3.882900	-11.638000	21.066725	0.000911	20.744805
30.001997	-2.987900	3.882800	-11.600000	21.057343	0.000910	20.721669
31.002172	-3.009700	3.881000	-11.680000	21.076580	0.000912	20.714357
32.003015	-3.012100	3.881900	-11.692000	21.068821	0.000911	20.736470
33.003171	-2.988100	3.880000	-11.593000	21.107168	0.000909	20.719349
34.003931	-3.004600	3.880300	-11.657000	21.095243	0.000909	20.727810
35.004758	-2.995400	3.881100	-11.624000	21.096591	0.000908	20.746703
36.004481	-3.000500	3.878500	-11.635000	21.082045	0.000909	20.708918
37.005011	-3.001600	3.878500	-11.640000	21.085463	0.000906	20.732727
38.003873	-2.986600	3.877700	-11.578000	21.090578	0.000906	20.710815
39.003399	-2.993800	3.877300	-11.606000	21.083118	0.000908	20.719475
40.003839	-3.010500	3.877000	-11.670000	21.110088	0.000906	20.739815
41.003440	-3.000500	3.877200	-11.633000	21.118022	0.000908	20.712662
42.005538	-2.994400	3.875100	-11.602000	21.125108	0.000905	20.725441
43.006044	-3.020800	3.874000	-11.702000	21.116925	0.000906	20.710142
44.006798	-2.983600	3.875200	-11.560000	21.147312	0.000905	20.708769
45.005051	-2.986100	3.875200	-11.570000	21.157591	0.000904	20.730433
46.005458	-3.003900	3.874500	-11.636000	21.155445	0.000903	20.692247
47.006871	-3.000000	3.873400	-11.619000	21.153125	0.000906	20.704153
48.006038	-2.988200	3.873500	-11.574000	21.157192	0.000905	20.708696
49.006296	-2.995800	3.873100	-11.603000	21.155122	0.000905	20.721324
50.004130	-2.997700	3.872400	-11.608000	21.171737	0.000904	20.724668
51.005227	-2.984400	3.874000	-11.561000	21.183213	0.000905	20.721923
52.007727	-3.022300	3.871600	-11.701000	21.188427	0.000905	20.720026
53.008102	-2.999800	3.871600	-11.613000	21.195438	0.000902	20.725144
54.009206	-3.008800	3.872500	-11.650000	21.209234	0.000904	20.721875
55.007825	-3.005500	3.870800	-11.633000	21.214971	0.000903	20.731408
56.008041	-2.980800	3.871600	-11.540000	21.230313	0.000904	20.720202
57.008178	-2.993300	3.870300	-11.584000	21.226297	0.000902	20.724720
58.012107	-2.996900	3.870300	-11.598000	21.230513	0.000904	20.739370
59.011693	-3.003300	3.870200	-11.622000	21.246479	0.000903	20.715037
60.009546	-3.007000	3.869700	-11.636000	21.272821	0.000900	20.734278
61.010245	-3.006600	3.868200	-11.628000	21.264065	0.000902	20.710344
62.011807	-3.014600	3.867200	-11.656000	21.273371	0.000904	20.719180
63.012576	-3.017600	3.867000	-11.668000	21.276014	0.000902	20.726093
64.010777	-2.987300	3.869500	-11.558000	21.282600	0.000903	20.721775
65.011090	-3.006800	3.867900	-11.627000	21.305674	0.000902	20.727790
66.013824	-3.006200	3.867300	-11.624000	21.308244	0.000902	20.741267
67.011548	-3.013800	3.866500	-11.651000	21.315103	0.000902	20.746233
68.012871	-2.991300	3.867500	-11.568000	21.317173	0.000900	20.719380
69.013921	-2.983600	3.867700	-11.539000	21.328698	0.000904	20.720004
70.016120	-3.004100	3.865900	-11.613000	21.336356	0.000903	20.712492
71.015246	-2.997800	3.866000	-11.588000	21.330643	0.000900	20.719580
72.016003	-3.006500	3.867100	-11.626000	21.352792	0.000901	20.739843
73.015792	-3.018500	3.864600	-11.664000	21.344886	0.000903	20.718182
74.017097	-2.991300	3.866000	-11.563000	21.340795	0.000902	20.729737
75.017262	-3.024800	3.864300	-11.688000	21.372374	0.000900	20.744262
76.016547	-3.002100	3.863600	-11.598000	21.380180	0.000902	20.733105
77.016284	-3.005000	3.864400	-11.611000	21.380953	0.000902	20.743363
78.021029	-3.029900	3.862700	-11.702000	21.383996	0.000902	20.745933
79.017835	-3.015400	3.863000	-11.646000	21.382999	0.000900	20.723123
80.016568	-3.016300	3.863000	-11.651000	21.395445	0.000901	20.739844
81.022662	-2.991000	3.863500	-11.554000	21.374543	0.000901	20.734577
82.019999	-2.972100	3.864700	-11.485000	21.419140	0.000901	20.730834
83.019789	-2.981900	3.862000	-11.515000	21.415424	0.000900	20.739445
84.021392	-2.980400	3.863900	-11.515000	21.435777	0.000902	20.738471
85.019689	-2.988800	3.863500	-11.546000	21.444830	0.000901	20.737573
86.020518	-2.991200	3.862200	-11.552000	21.437921	0.000901	20.738246
87.023397	-2.999700	3.861100	-11.581000	21.428468	0.000900	20.754867
88.020342	-2.987300	3.863000	-11.538000	21.454383	0.000901	20.717258
89.019681	-3.001700	3.862300	-11.592000	21.439618	0.000903	20.751798
90.024738	-2.972700	3.862300	-11.480000	21.468949	0.000901	20.750326
91.026728	-3.007300	3.860700	-11.609000	21.493491	0.000903	20.741217
92.020151	-2.991100	3.861400	-11.548000	21.483639	0.000901	20.735626
93.024121	-2.999100	3.860200	-11.577000	21.508030	0.000900	20.744860
94.020819	-3.018500	3.858700	-11.646000	21.520900	0.000902	20.752996
95.022211	-3.005400	3.859400	-11.598000	21.500748	0.000901	20.735202
96.026076	-2.979000	3.861600	-11.502000	21.514117	0.000903	20.741467
97.021211	-3.054100	3.858800	-11.782000	21.549157	0.000902	20.740968
98.021287	-3.010700	3.859600	-11.618000	21.549730	0.000901	20.752922
99.023602	-3.003400	3.859800	-11.592000	21.552173	0.000901	20.747305
100.023152	-2.987500	3.860300	-11.532000	21.544467	0.000902	20.757613
101.020974	-3.012300	3.857200	-11.617000	21.548932	0.000902	20.754019
102.024721	-2.995900	3.857700	-11.557000	21.561676	0.000903	20.765350
103.023194	-3.006800	3.857700	-11.598000	21.567386	0.000902	20.744510
104.022228	-2.992100	3.858900	-11.544000	21.571327	0.000903	20.752721
105.026070	-2.998100	3.857900	-11.565000	21.570205	0.000904	20.763453
106.023097	-2.977300	3.858000	-11.485000	21.573471	0.000903	20.741116
107.021624	-3.010000	3.856700	-11.607000	21.576913	0.000902	20.764950
108.025238	-3.000100	3.857300	-11.571000	21.569680	0.000903	20.760557
109.022061	-2.993500	3.856600	-11.544000	21.601452	0.000902	20.728812
110.023130	-3.002700	3.856600	-11.579000	21.600205	0.000906	20.769292
111.023871	-2.993100	3.856200	-11.541000	21.625492	0.000902	20.752397
112.024352	-3.014700	3.856200	-11.623000	21.615716	0.000903	20.763477
113.024893	-3.007500	3.855800	-11.594000	21.649382	0.000905	20.767769
114.025887	-3.013200	3.857000	-11.620000	21.634844	0.000902	20.764601
115.024427	-3.001200	3.855100	-11.569000	21.658932	0.000905	20.784914
116.025360	-3.006300	3.856000	-11.592000	21.655716	0.000905	20.776480
117.024389	-3.035100	3.853300	-11.694000	21.670104	0.000905	20.784715
118.027564	-2.995300	3.855400	-11.547000	21.677460	0.000903	20.770265
119.027301	-2.978400	3.854300	-11.479000	21.682822	0.000905	20.757613
120.029410	-2.992300	3.855300	-11.535000	21.680976	0.000905	20.749601
121.028022	-2.979600	3.856600	-11.490000	21.698681	0.000905	20.776803
122.028695	-3.001900	3.854500	-11.569000	21.685092	0.000905	20.766522
123.032944	-3.002100	3.854700	-11.570000	21.698806	0.000906	20.774083
124.030979	-2.991300	3.854000	-11.528000	21.709653	0.000905	20.761231
125.029533	-2.999900	3.853100	-11.558000	21.696586	0.000907	20.756214
126.031608	-2.994500	3.853000	-11.536000	21.707807	0.000908	20.766022
127.029984	-3.009000	3.852900	-11.593000	21.728579	0.000907	20.769267
128.028560	-2.980500	3.854900	-11.489000	21.728853	0.000907	20.765747
129.031680	-3.016100	3.853100	-11.619000	21.733665	0.000905	20.767719
130.031599	-3.015500	3.851900	-11.614000	21.730598	0.000907	20.769865
131.028844	-3.006200	3.852500	-11.580000	21.746607	0.000907	20.768817
132.035398	-3.011300	3.850800	-11.595000	21.743365	0.000908	20.758460
133.031294	-3.001800	3.851500	-11.560000	21.761218	0.000909	20.764948
134.032274	-2.997500	3.851500	-11.545000	21.758425	0.000907	20.772585
135.034759	-2.993200	3.853300	-11.533000	21.768026	0.000909	20.776504
136.033443	-3.007800	3.850500	-11.581000	21.782662	0.000909	20.784989
137.032255	-3.012600	3.850900	-11.599000	21.787225	0.000909	20.767744
138.034133	-2.990200	3.850700	-11.514000	21.786327	0.000909	20.775380
139.032530	-2.994500	3.851300	-11.531000	21.777674	0.000909	20.771461
140.031978	-3.010900	3.850400	-11.592000	21.782013	0.000911	20.788133
141.034866	-3.014200	3.849800	-11.603000	21.792136	0.000910	20.776453
142.032921	-2.987700	3.849000	-11.498000	21.800414	0.000911	20.786634
143.032483	-3.017800	3.849100	-11.614000	21.803879	0.000909	20.788681
144.035992	-2.978900	3.849000	-11.464000	21.800339	0.000909	20.792724
145.033772	-2.996700	3.849200	-11.534000	21.834472	0.000911	20.793696
146.033918	-2.987500	3.848500	-11.497000	21.821283	0.000911	20.775280
147.033459	-3.002600	3.847700	-11.552000	21.848086	0.000909	20.794520
148.038233	-3.018300	3.847400	-11.611000	21.845020	0.000911	20.768692
149.034742	-2.999300	3.849200	-11.543000	21.875486	0.000913	20.792074
150.035583	-3.006200	3.848000	-11.565000	21.860104	0.000912	20.793747
151.035667	-3.006700	3.847300	-11.566000	21.873168	0.000913	20.791650
152.037333	-3.019100	3.847700	-11.616000	21.891667	0.000914	20.793572
153.036990	-2.990200	3.846700	-11.502000	21.896928	0.000915	20.778922
154.036082	-2.995300	3.848600	-11.526000	21.914280	0.000915	20.797240
155.038074	-3.004600	3.846600	-11.555000	21.888427	0.000913	20.796492
156.035199	-2.997800	3.847600	-11.533000	21.890370	0.000914	20.784687
157.036053	-2.984600	3.847400	-11.483000	21.887927	0.000913	20.791725
158.036967	-2.997400	3.847300	-11.531000	21.903559	0.000915	20.801682
159.037115	-3.001900	3.847500	-11.549000	21.916922	0.000916	20.790402
160.035798	-2.986100	3.848100	-11.489000	21.921310	0.000915	20.798113
161.037765	-2.996600	3.847400	-11.527000	21.928391	0.000916	20.805200
162.038291	-3.012000	3.844900	-11.579000	21.942402	0.000917	20.798363
163.040126	-2.998400	3.847000	-11.534000	21.945593	0.000919	20.792074
164.040175	-3.008100	3.846000	-11.567000	21.952474	0.000918	20.800858
165.040914	-3.011400	3.845500	-11.579000	21.968953	0.000918	20.802181
166.043810	-2.984300	3.844800	-11.473000	21.966111	0.000918	20.808345
167.039992	-3.004300	3.844800	-11.550000	21.987650	0.000917	20.818052
168.039824	-2.990000	3.845600	-11.497000	21.991065	0.000918	20.802979
169.040648	-2.991400	3.845100	-11.501000	22.013776	0.000918	20.795368
170.040737	-3.010600	3.843000	-11.568000	22.023298	0.000919	20.810116
171.040178	-2.992100	3.843800	-11.500000	22.040101	0.000922	20.815083
172.040770	-3.003100	3.843200	-11.540000	22.045934	0.000919	20.789154
173.041014	-2.991300	3.843500	-11.496000	22.063608	0.000922	20.802580
174.039479	-2.996700	3.842400	-11.513000	22.068519	0.000921	20.818402
175.044148	-3.000200	3.842300	-11.526000	22.069067	0.000921	20.794769
176.041315	-2.988300	3.842900	-11.484000	22.084921	0.000921	20.796416
177.044339	-3.010900	3.841400	-11.565000	22.057052	0.000921	20.819250
178.043455	-3.010200	3.842300	-11.566000	22.099554	0.000922	20.803953
179.045479	-3.007500	3.842700	-11.556000	22.098682	0.000923	20.812562
180.046824	-2.980600	3.842600	-11.451000	22.108527	0.000924	20.806298
181.047191	-2.997200	3.842600	-11.516000	22.088237	0.000923	20.799736
182.047094	-3.000800	3.840800	-11.524000	22.105561	0.000922	20.795268
183.046896	-3.001500	3.842800	-11.533000	22.110896	0.000925	20.822894
184.058359	-3.007700	3.842000	-11.554000	22.143126	0.000926	20.807272
185.048588	-2.994500	3.841500	-11.502000	22.130913	0.000924	20.800260
186.048433	-3.013600	3.839800	-11.571000	22.164488	0.000925	20.818227
187.053024	-3.003000	3.840200	-11.531000	22.162219	0.000924	20.799835
188.047034	-3.004600	3.840600	-11.538000	22.164663	0.000926	20.828360
189.046590	-2.995600	3.838400	-11.498000	22.158357	0.000927	20.823943
190.052701	-3.013500	3.840000	-11.571000	22.181189	0.000927	20.815035
191.050515	-2.976500	3.841900	-11.433000	22.182185	0.000927	20.801807
192.048657	-2.981500	3.840600	-11.449000	22.166133	0.000928	20.815608
193.047047	-3.015000	3.838400	-11.572000	22.175157	0.000929	20.828909
194.048899	-3.014000	3.839100	-11.570000	22.172290	0.000929	20.819401
195.049352	-3.002800	3.840300	-11.531000	22.231536	0.000929	20.837468
196.050888	-2.987900	3.838200	-11.467000	22.205067	0.000931	20.821872
197.051734	-3.006700	3.838100	-11.539000	22.198737	0.000930	20.822646
198.050939	-3.008400	3.836900	-11.541000	22.184280	0.000930	20.832827
199.055204	-3.014700	3.836700	-11.565000	22.205914	0.000933	20.825090
200.050733	-3.003600	3.837300	-11.525000	22.220995	0.000932	20.816009
201.054317	-2.984200	3.838500	-11.454000	22.211798	0.000931	20.841886
202.056524	-2.985600	3.837800	-11.458000	22.226453	0.000934	20.816258
203.053465	-2.996900	3.836100	-11.495000	22.227725	0.000935	20.841712
204.052294	-2.986300	3.837700	-11.460000	22.239738	0.000933	20.831455
205.059241	-2.970200	3.838000	-11.399000	22.245221	0.000936	20.826040
206.053936	-2.962800	3.837500	-11.367000	22.275229	0.000934	20.829534
207.053626	-3.005100	3.837300	-11.529000	22.283204	0.000935	20.843208
208.061757	-3.026000	3.836100	-11.607000	22.330359	0.000938	20.830208
209.056835	-3.010000	3.835000	-11.541000	22.326096	0.000936	20.851069
210.055244	-3.000400	3.834700	-11.504000	22.313984	0.000937	20.849846
211.058403	-3.004700	3.834600	-11.521000	22.300102	0.000936	20.834524
212.057281	-3.010100	3.835500	-11.544000	22.311018	0.000936	20.847351
213.056038	-3.014300	3.834600	-11.557000	22.298632	0.000939	20.839690
214.065186	-3.013500	3.833600	-11.551000	22.292052	0.000937	20.842110
215.060128	-3.011100	3.832500	-11.539000	22.308874	0.000938	20.837618
216.061441	-2.989900	3.836000	-11.468000	22.326568	0.000939	20.834473
217.057098	-2.984800	3.834200	-11.443000	22.332700	0.000939	20.835397
218.059495	-2.992800	3.834700	-11.474000	22.326819	0.000939	20.835672
219.057335	-2.993600	3.833800	-11.475000	22.345285	0.000939	20.838990
220.059149	-3.001100	3.833400	-11.504000	22.341871	0.000940	20.838416
221.060452	-2.995600	3.833900	-11.483000	22.344238	0.000942	20.847899
222.059649	-2.995200	3.832300	-11.476000	22.367465	0.000941	20.857406
223.059399	-2.999800	3.832700	-11.497000	22.371328	0.000943	20.866015
224.062914	-2.989100	3.832400	-11.455000	22.363303	0.000943	20.838067
225.059819	-3.008300	3.831600	-11.525000	22.374891	0.000944	20.863894
226.060610	-2.997100	3.832500	-11.485000	22.380698	0.000943	20.848373
227.060499	-3.013600	3.831500	-11.546000	22.396423	0.000942	20.845628
228.063219	-3.025900	3.830700	-11.590000	22.414863	0.000942	20.855085
229.063939	-2.997600	3.831100	-11.483000	22.402852	0.000943	20.845428
230.063867	-2.995100	3.831500	-11.475000	22.430040	0.000944	20.857480
231.064043	-2.991800	3.831700	-11.464000	22.418725	0.000946	20.844728
232.064225	-3.013000	3.831200	-11.543000	22.435173	0.000947	20.851716
233.078802	-2.986700	3.830500	-11.439000	22.447284	0.000946	20.861947
234.063851	-2.999300	3.831800	-11.492000	22.465176	0.000949	20.868011
235.067001	-2.995500	3.831300	-11.476000	22.457576	0.000948	20.860400
236.065847	-2.986100	3.830700	-11.437000	22.458073	0.000949	20.863268
237.064966	-3.003000	3.830000	-11.499000	22.460616	0.000947	20.861073
238.066295	-2.973700	3.831500	-11.393000	22.466397	0.000949	20.866862
239.064840	-2.986700	3.831400	-11.441000	22.471504	0.000948	20.874348
240.065714	-2.988800	3.830400	-11.445000	22.468290	0.000949	20.867810
241.065200	-2.986500	3.829700	-11.434000	22.456776	0.000950	20.872875
242.064602	-3.020300	3.829000	-11.564000	22.509655	0.000951	20.848071
243.066321	-2.997200	3.829800	-11.478000	22.475491	0.000953	20.849418
244.065351	-3.015500	3.827100	-11.539000	22.511373	0.000954	20.881558
245.065038	-3.022800	3.826900	-11.567000	22.482593	0.000954	20.883081
246.066286	-2.991100	3.827400	-11.447000	22.505542	0.000953	20.858176
247.064475	-2.997700	3.826800	-11.471000	22.523059	0.000954	20.878089
248.067656	-3.023800	3.825900	-11.568000	22.522387	0.000955	20.859399
249.066693	-3.005000	3.827100	-11.500000	22.552413	0.000953	20.873349
250.066401	-3.002700	3.826500	-11.488000	22.547778	0.000955	20.863018
251.068917	-3.010600	3.826800	-11.520000	22.575136	0.000956	20.888994
252.068830	-2.995200	3.826600	-11.459000	22.592328	0.000955	20.849791
253.065960	-2.999000	3.826300	-11.473000	22.572145	0.000957	20.848069
254.070827	-3.002500	3.827700	-11.492000	22.589164	0.000956	20.862269
255.068913	-3.017200	3.825000	-11.540000	22.596265	0.000956	20.867009
256.069021	-2.990600	3.826000	-11.441000	22.575110	0.000958	20.874270
257.069487	-2.995400	3.825300	-11.457000	22.553109	0.000960	20.850814
258.069538	-3.001100	3.824600	-11.477000	22.553558	0.000958	20.858375
259.069181	-3.002000	3.825200	-11.481000	22.552859	0.000960	20.839185
260.070371	-3.007100	3.825000	-11.500000	22.561258	0.000959	20.871302
261.071222	-3.007000	3.825300	-11.502000	22.566464	0.000961	20.846172
262.072573	-3.015200	3.824900	-11.532000	22.541173	0.000960	20.845024
263.071447	-3.001700	3.824800	-11.479000	22.570800	0.000962	20.859523
264.074099	-2.994100	3.824100	-11.449000	22.574736	0.000962	20.856827
265.070266	-3.000500	3.823000	-11.470000	22.606404	0.000963	20.853458
266.072322	-2.994400	3.824000	-11.449000	22.606256	0.000964	20.854731
267.071476	-2.994900	3.824800	-11.453000	22.587743	0.000963	20.845673
268.071893	-2.995900	3.823000	-11.452000	22.613032	0.000965	20.851561
269.072424	-3.009100	3.821800	-11.500000	22.643081	0.000965	20.859846
270.073422	-3.000300	3.823300	-11.469000	22.636827	0.000964	20.838411
271.074365	-3.006400	3.822200	-11.491000	22.638546	0.000967	20.847718
272.075169	-2.995400	3.822100	-11.447000	22.658901	0.000968	20.843925
