LabVIEW Measurement	
Writer_Version	2
Reader_Version	2
Separator	Tab
Decimal_Separator	.
Multi_Headings	No
X_Columns	One
Time_Pref	Absolute
Operator	admin
Description	Clolumns are: time, Current, Voltage, Power, Battery Temp, and Chamber Temp
Date	2024/08/16
Time	13:06:06.104549407958984375
***End_of_Header***	
	
Channels	6						
Samples	1	1	1	1	1	1	
Date	2024/08/31	2024/08/31	2024/08/31	2024/08/31	2024/08/31	2024/08/31	
Time	08:47:25.8167486190795898437	08:47:25.8234047889709472656	08:47:25.8314008712768554687	08:47:25.7842278480529785156	08:47:25.7842278480529785156	08:47:25.7842278480529785156	
X_Dimension	Time	Time	Time	Time	Time	Time	
X0	0.0000000000000000E+0	0.0000000000000000E+0	0.0000000000000000E+0	0.0000000000000000E+0	0.0000000000000000E+0	0.0000000000000000E+0	
Delta_X	1.000000	1.000000	1.000000	1.000000	1.000000	1.000000	
***End_of_Header***							
X_Value	Untitled	Untitled 1	Untitled 2	Untitled 3	Untitled 4	Untitled 5	Comment
0.000000	0.014795	4.109400	0.060735	20.984321	0.000954	20.740145
0.991503	-2.981200	3.942200	-11.751000	20.985345	0.000950	20.767249
1.992262	-2.994000	3.934400	-11.779000	20.978809	0.000950	20.772092
2.992150	-3.004400	3.930600	-11.808000	20.972047	0.000949	20.768173
3.990284	-3.013200	3.925800	-11.829000	20.985396	0.000948	20.754498
4.994324	-3.016700	3.921100	-11.828000	20.985022	0.000948	20.776409
5.990741	-3.012500	3.918100	-11.802000	20.996874	0.000945	20.764555
6.988714	-3.019200	3.915200	-11.820000	20.969027	0.000946	20.757567
7.998333	-3.014400	3.913900	-11.796000	20.985321	0.000943	20.760113
8.994187	-2.983500	3.913500	-11.675000	20.982401	0.000945	20.746287
9.994225	-3.011400	3.911800	-11.779000	20.993979	0.000944	20.775885
10.995206	-2.985900	3.910000	-11.674000	20.981878	0.000943	20.744341
11.992261	-3.005900	3.905700	-11.739000	21.025393	0.000942	20.760363
13.007109	-3.012200	3.905400	-11.763000	21.014488	0.000942	20.760836
13.999219	-2.977900	3.905500	-11.629000	21.006654	0.000941	20.766751
14.991174	-2.976700	3.904600	-11.622000	21.032628	0.000939	20.751478
16.001650	-2.997100	3.902700	-11.696000	21.014913	0.000938	20.765054
17.008018	-3.000700	3.900100	-11.702000	21.025168	0.000938	20.743542
17.992399	-3.007000	3.898700	-11.722000	21.026740	0.000937	20.765978
19.001528	-3.000600	3.899400	-11.700000	21.025143	0.000938	20.764380
20.005218	-2.968100	3.897700	-11.568000	21.009473	0.000938	20.774313
20.999578	-3.007500	3.896800	-11.718000	21.026366	0.000936	20.747111
22.000917	-2.994600	3.895800	-11.665000	21.035173	0.000936	20.752601
23.005955	-3.008600	3.896300	-11.721000	21.027688	0.000937	20.760288
24.000253	-2.994500	3.893700	-11.659000	21.040238	0.000935	20.752452
25.005365	-2.998600	3.894500	-11.677000	21.040686	0.000935	20.762858
26.004653	-2.992700	3.892400	-11.648000	21.073072	0.000933	20.787190
26.997820	-3.009500	3.891200	-11.709000	21.089289	0.000935	20.755995
27.999147	-2.988600	3.891900	-11.631000	21.087992	0.000933	20.761810
29.007060	-3.007300	3.891500	-11.701000	21.082553	0.000932	20.743568
30.000621	-3.006500	3.891000	-11.697000	21.087219	0.000932	20.766253
31.004492	-2.993400	3.890700	-11.645000	21.106230	0.000932	20.753026
31.999202	-3.017700	3.887900	-11.731000	21.101839	0.000933	20.754798
32.998684	-3.002700	3.889100	-11.675000	21.117433	0.000932	20.764232
34.005723	-3.014300	3.886500	-11.713000	21.099995	0.000931	20.755324
34.997761	-3.009300	3.886000	-11.692000	21.110248	0.000930	20.755623
36.011238	-3.008000	3.886700	-11.690000	21.104511	0.000930	20.761264
37.001827	-2.986400	3.888600	-11.612000	21.118981	0.000930	20.750607
38.014938	-3.006100	3.885100	-11.677000	21.104087	0.000930	20.768426
39.000384	-2.991600	3.886400	-11.625000	21.122899	0.000928	20.766381
40.010863	-3.038500	3.882700	-11.795000	21.141660	0.000928	20.772820
41.007535	-3.013600	3.883600	-11.702000	21.153461	0.000928	20.756174
42.009922	-2.992600	3.884500	-11.624000	21.164613	0.000926	20.786770
43.005833	-3.011600	3.883400	-11.694000	21.157154	0.000927	20.758920
44.011784	-2.996200	3.881300	-11.628000	21.154734	0.000928	20.764086
45.008101	-2.976800	3.882100	-11.555000	21.196870	0.000928	20.765933
46.011647	-2.974300	3.882300	-11.545000	21.198044	0.000924	20.770901
47.004999	-2.988700	3.883300	-11.605000	21.197370	0.000924	20.770701
48.011687	-3.012900	3.881700	-11.694000	21.195424	0.000925	20.756900
49.009997	-2.998500	3.881000	-11.636000	21.202308	0.000926	20.750510
50.008651	-2.991200	3.880900	-11.607000	21.202385	0.000925	20.750587
51.007465	-3.000100	3.879800	-11.638000	21.207425	0.000923	20.774595
52.004891	-2.992400	3.879200	-11.608000	21.237785	0.000925	20.761344
53.010547	-3.002600	3.877300	-11.640000	21.227058	0.000924	20.762941
54.008929	-3.000700	3.878800	-11.636000	21.238036	0.000924	20.768233
55.005776	-2.992300	3.877900	-11.603000	21.249137	0.000923	20.773175
56.023071	-2.983500	3.879300	-11.573000	21.260662	0.000925	20.781860
57.019101	-2.977800	3.878600	-11.549000	21.257993	0.000923	20.781086
58.031096	-2.994700	3.877300	-11.611000	21.250784	0.000923	20.763917
59.018625	-2.993000	3.878300	-11.607000	21.280870	0.000922	20.760349
60.018387	-3.013500	3.876000	-11.680000	21.280970	0.000923	20.772778
61.012949	-3.013300	3.876300	-11.679000	21.292569	0.000923	20.763519
62.008885	-2.970000	3.877600	-11.516000	21.289876	0.000921	20.780265
63.023123	-3.007200	3.876000	-11.655000	21.303297	0.000921	20.792744
64.024411	-2.999700	3.876000	-11.627000	21.299257	0.000923	20.783012
65.019139	-2.996100	3.874400	-11.606000	21.298908	0.000920	20.792620
66.012593	-2.995400	3.874000	-11.603000	21.299757	0.000922	20.778771
67.016422	-2.996700	3.874800	-11.609000	21.331562	0.000923	20.779296
68.024405	-2.994800	3.874100	-11.601000	21.342162	0.000919	20.774254
69.016366	-2.990600	3.876100	-11.591000	21.346529	0.000924	20.805649
70.020292	-2.989700	3.874200	-11.582000	21.354611	0.000921	20.787184
71.022880	-3.021000	3.872900	-11.699000	21.348450	0.000921	20.780071
72.012606	-3.000300	3.873800	-11.621000	21.338175	0.000920	20.768368
73.013350	-3.031800	3.871800	-11.737000	21.368457	0.000920	20.778751
74.018466	-3.013500	3.872400	-11.669000	21.363843	0.000920	20.804006
75.016176	-3.028700	3.870900	-11.724000	21.387165	0.000919	20.790356
76.015637	-3.020600	3.871900	-11.693000	21.397466	0.000922	20.781222
77.019650	-2.983200	3.872100	-11.550000	21.413005	0.000921	20.792975
78.020983	-3.005700	3.871600	-11.634000	21.422834	0.000921	20.798068
79.014410	-3.012400	3.870100	-11.657000	21.419466	0.000921	20.790906
80.020629	-3.006400	3.870000	-11.634000	21.424804	0.000921	20.795298
81.018531	-2.986900	3.870700	-11.561000	21.444234	0.000921	20.773961
82.029734	-3.011700	3.870300	-11.655000	21.439970	0.000922	20.785816
83.027626	-2.988300	3.869400	-11.561000	21.452315	0.000919	20.778728
84.031607	-2.976800	3.871200	-11.523000	21.454212	0.000920	20.794376
85.038635	-3.003000	3.871900	-11.626000	21.440345	0.000920	20.803261
86.032825	-2.999300	3.871000	-11.610000	21.483842	0.000920	20.804109
87.020589	-2.982600	3.870400	-11.543000	21.472968	0.000920	20.784694
88.030066	-2.985200	3.870000	-11.551000	21.492122	0.000919	20.796273
89.025529	-2.991400	3.868700	-11.572000	21.481649	0.000921	20.797173
90.019727	-2.994200	3.868900	-11.584000	21.481773	0.000921	20.784495
91.028145	-2.972900	3.869900	-11.504000	21.495416	0.000919	20.803836
92.025554	-3.013200	3.868600	-11.655000	21.480901	0.000920	20.793580
93.025397	-3.003100	3.867500	-11.614000	21.502175	0.000920	20.808703
94.025568	-2.994900	3.867300	-11.580000	21.506964	0.000922	20.815865
95.021637	-2.984200	3.867200	-11.539000	21.531655	0.000920	20.792683
96.027679	-2.993800	3.868400	-11.579000	21.530458	0.000920	20.800493
97.032352	-2.997600	3.868800	-11.596000	21.528762	0.000919	20.787891
98.027149	-2.981500	3.867300	-11.529000	21.531081	0.000918	20.805385
99.020308	-2.983400	3.867400	-11.537000	21.563902	0.000921	20.806458
100.036463	-2.969300	3.866100	-11.478000	21.558840	0.000919	20.780530
101.022101	-2.984200	3.867700	-11.541000	21.556720	0.000920	20.802117
102.022594	-2.983200	3.866000	-11.532000	21.548165	0.000919	20.790711
103.026873	-3.021300	3.866000	-11.680000	21.567420	0.000921	20.807608
104.029808	-3.003800	3.864100	-11.605000	21.573205	0.000921	20.792534
105.029467	-2.995800	3.866000	-11.580000	21.594253	0.000921	20.826398
106.032444	-3.023900	3.864100	-11.683000	21.611611	0.000920	20.804888
107.024509	-3.025300	3.864100	-11.689000	21.601112	0.000920	20.801020
108.029252	-3.013400	3.864100	-11.643000	21.625203	0.000919	20.809954
109.039715	-2.996900	3.863300	-11.576000	21.609018	0.000921	20.820785
110.024905	-3.006400	3.862900	-11.612000	21.618919	0.000921	20.821210
111.029691	-3.008600	3.863600	-11.622000	21.626374	0.000920	20.832463
112.036689	-2.996900	3.862900	-11.576000	21.632509	0.000919	20.813947
113.025902	-3.004200	3.862700	-11.604000	21.644205	0.000921	20.831815
114.041727	-3.003100	3.863600	-11.602000	21.656200	0.000922	20.802568
115.036436	-2.995400	3.864100	-11.573000	21.671137	0.000920	20.819886
116.027997	-2.995900	3.863200	-11.573000	21.679790	0.000923	20.831865
117.029246	-3.032500	3.862000	-11.710000	21.673531	0.000921	20.818489
118.028317	-3.036200	3.859700	-11.718000	21.688617	0.000921	20.821259
119.030389	-2.997200	3.861600	-11.573000	21.725348	0.000922	20.826725
120.030016	-3.022400	3.862600	-11.673000	21.720185	0.000920	20.844791
121.029016	-3.007700	3.861300	-11.611000	21.705398	0.000922	20.824303
122.029853	-2.976900	3.862700	-11.497000	21.722155	0.000920	20.828271
123.039642	-2.993100	3.862200	-11.559000	21.705822	0.000924	20.818089
124.043249	-3.008000	3.860300	-11.611000	21.720859	0.000922	20.818913
125.031088	-3.013800	3.861300	-11.635000	21.727691	0.000922	20.812474
126.033913	-3.014300	3.860500	-11.635000	21.720109	0.000923	20.811051
127.034658	-3.004900	3.860200	-11.599000	21.730757	0.000922	20.835457
128.030123	-3.015200	3.859600	-11.636000	21.757613	0.000923	20.830093
129.034615	-3.009600	3.861100	-11.619000	21.755518	0.000925	20.818987
130.033107	-2.986400	3.859400	-11.524000	21.765791	0.000922	20.829268
131.033558	-2.984000	3.861900	-11.522000	21.794214	0.000923	20.818362
132.044444	-2.981500	3.860100	-11.508000	21.778331	0.000924	20.816689
133.041464	-3.011400	3.859100	-11.620000	21.782744	0.000925	20.815890
134.031605	-3.007600	3.859500	-11.608000	21.771025	0.000924	20.834032
135.033881	-2.994900	3.860400	-11.560000	21.796457	0.000923	20.832460
136.041297	-3.012700	3.857700	-11.621000	21.776085	0.000924	20.820131
137.035048	-3.002900	3.858400	-11.586000	21.798950	0.000924	20.821679
138.038941	-3.008800	3.857700	-11.604000	21.806504	0.000924	20.818334
139.036424	-2.992600	3.858600	-11.545000	21.800419	0.000927	20.820304
140.035240	-2.989000	3.858200	-11.530000	21.814132	0.000927	20.844934
141.035716	-2.992200	3.857600	-11.542000	21.828742	0.000924	20.814988
142.049175	-3.002300	3.858100	-11.583000	21.825425	0.000925	20.827314
143.036688	-3.002600	3.858100	-11.582000	21.828816	0.000925	20.825967
144.040712	-2.983600	3.857300	-11.508000	21.837791	0.000924	20.839217
145.040963	-3.005900	3.856800	-11.593000	21.863670	0.000927	20.813438
146.048407	-3.012500	3.855500	-11.613000	21.849059	0.000926	20.828210
147.041790	-3.007200	3.856900	-11.597000	21.869479	0.000926	20.843433
148.042818	-2.989900	3.855100	-11.524000	21.868356	0.000930	20.862222
149.040546	-2.988000	3.857700	-11.525000	21.865189	0.000926	20.828234
150.043979	-2.994500	3.857200	-11.550000	21.890869	0.000927	20.830704
151.042618	-2.995900	3.854800	-11.548000	21.888150	0.000926	20.839837
152.037499	-3.000500	3.854900	-11.565000	21.913655	0.000929	20.850193
153.045360	-3.011200	3.855700	-11.609000	21.902860	0.000929	20.833224
154.045869	-2.989400	3.855900	-11.526000	21.920187	0.000929	20.830653
155.047514	-3.028100	3.854500	-11.671000	21.931854	0.000928	20.831426
156.042764	-3.012300	3.854300	-11.609000	21.951499	0.000928	20.834495
157.051935	-2.991600	3.854600	-11.531000	21.929735	0.000927	20.828356
158.044573	-3.003600	3.854600	-11.577000	21.971070	0.000930	20.831800
159.042129	-3.007600	3.855000	-11.593000	21.960848	0.000931	20.833422
160.039045	-3.007200	3.852000	-11.582000	21.968128	0.000930	20.843080
161.041244	-3.001500	3.854200	-11.568000	21.987947	0.000930	20.845849
162.044994	-2.995300	3.853400	-11.540000	21.975457	0.000929	20.857528
163.043203	-3.006500	3.853800	-11.586000	21.976852	0.000930	20.849916
164.045315	-3.000800	3.852200	-11.558000	21.957132	0.000932	20.853410
165.043118	-3.003400	3.852100	-11.569000	21.987073	0.000931	20.856354
166.044656	-3.008900	3.851000	-11.585000	21.978274	0.000932	20.836641
167.050337	-3.006900	3.852200	-11.581000	22.004599	0.000932	20.835018
168.049614	-3.023900	3.851300	-11.645000	22.009285	0.000933	20.863416
169.045322	-2.994800	3.853200	-11.538000	21.966183	0.000934	20.845874
170.056411	-2.990700	3.853000	-11.522000	21.992907	0.000934	20.855556
171.046060	-2.991800	3.852600	-11.525000	22.022075	0.000932	20.845400
172.044644	-2.972700	3.853700	-11.454000	22.029952	0.000934	20.858027
173.046336	-3.012300	3.851500	-11.600000	22.023271	0.000933	20.873149
174.056325	-3.002900	3.850200	-11.561000	22.050942	0.000935	20.854384
175.051415	-2.987000	3.852100	-11.505000	22.056227	0.000935	20.845450
176.045786	-3.004400	3.851000	-11.569000	22.058346	0.000935	20.866536
177.054830	-3.021600	3.850600	-11.633000	22.064901	0.000935	20.843703
178.051971	-2.982500	3.851300	-11.486000	22.056850	0.000936	20.864565
179.048412	-3.014100	3.848900	-11.600000	22.080681	0.000935	20.875619
180.049096	-3.000800	3.850400	-11.553000	22.068094	0.000936	20.859226
181.048122	-3.018700	3.848100	-11.615000	22.093245	0.000936	20.854534
182.043290	-3.017600	3.848000	-11.610000	22.073877	0.000938	20.870705
183.044510	-2.996100	3.849800	-11.534000	22.088958	0.000938	20.874423
184.046026	-2.987900	3.849800	-11.502000	22.087961	0.000940	20.870580
185.045342	-2.987800	3.849700	-11.500000	22.115432	0.000940	20.872952
186.046294	-2.992300	3.849000	-11.516000	22.111992	0.000938	20.877568
187.061159	-2.991900	3.850400	-11.518000	22.127870	0.000938	20.868335
188.051775	-2.988500	3.849100	-11.502000	22.127023	0.000940	20.850893
189.051815	-2.991800	3.847600	-11.510000	22.147987	0.000940	20.842009
190.047343	-3.006200	3.847800	-11.566000	22.149160	0.000940	20.865942
191.044558	-2.999600	3.847700	-11.540000	22.140360	0.000940	20.866141
192.049124	-2.996700	3.848200	-11.531000	22.147963	0.000941	20.844830
193.048408	-2.995400	3.847900	-11.525000	22.148835	0.000940	20.879366
194.045086	-3.027800	3.847800	-11.650000	22.157112	0.000943	20.872955
195.056077	-3.008300	3.847500	-11.573000	22.157411	0.000944	20.855711
196.045731	-3.003100	3.847400	-11.553000	22.166110	0.000944	20.871058
197.049368	-2.995000	3.846800	-11.520000	22.219576	0.000947	20.861053
198.050062	-2.970100	3.847000	-11.425000	22.192258	0.000945	20.855513
199.059738	-2.991400	3.847300	-11.507000	22.212123	0.000944	20.890099
200.052930	-3.011200	3.845500	-11.578000	22.196770	0.000945	20.860505
201.051063	-2.989600	3.846500	-11.497000	22.239366	0.000945	20.869014
202.051667	-3.006900	3.846000	-11.564000	22.231466	0.000948	20.878646
203.049750	-2.981400	3.846200	-11.466000	22.232015	0.000946	20.868766
204.056077	-2.993700	3.845200	-11.510000	22.237248	0.000948	20.875902
205.057451	-3.019400	3.843900	-11.606000	22.249911	0.000948	20.895691
206.064098	-2.987000	3.844900	-11.484000	22.271620	0.000948	20.878074
207.062206	-3.009200	3.843800	-11.566000	22.257463	0.000948	20.895667
208.052714	-2.972500	3.845600	-11.430000	22.272742	0.000949	20.902429
209.052562	-2.995000	3.844500	-11.513000	22.284407	0.000949	20.885187
210.055619	-3.006100	3.843000	-11.551000	22.271396	0.000949	20.885436
211.057905	-2.998300	3.844500	-11.526000	22.309306	0.000951	20.894946
212.057000	-3.000000	3.843700	-11.530000	22.293830	0.000951	20.878976
213.056215	-3.014400	3.842300	-11.580000	22.296796	0.000950	20.898540
214.061841	-2.995000	3.844500	-11.514000	22.308534	0.000949	20.885638
215.069666	-3.011100	3.841600	-11.567000	22.322965	0.000952	20.896768
216.062843	-3.020700	3.841800	-11.604000	22.333782	0.000953	20.886738
217.061831	-3.006200	3.842900	-11.552000	22.348287	0.000954	20.884667
218.069200	-2.966600	3.844300	-11.402000	22.328998	0.000953	20.894275
219.058059	-3.005400	3.842900	-11.549000	22.317284	0.000955	20.896770
220.059634	-3.000800	3.843400	-11.532000	22.349958	0.000955	20.887289
221.069401	-2.977100	3.843000	-11.440000	22.342408	0.000953	20.911021
222.062881	-2.997600	3.842100	-11.516000	22.331243	0.000955	20.900789
223.064794	-3.006700	3.841900	-11.550000	22.349062	0.000955	20.897297
224.062882	-3.014300	3.840900	-11.576000	22.391829	0.000958	20.892707
225.057972	-3.023900	3.840900	-11.613000	22.395742	0.000956	20.903736
226.063457	-3.009100	3.841200	-11.558000	22.409474	0.000958	20.898996
227.069767	-2.998800	3.839700	-11.512000	22.408503	0.000959	20.932160
228.067128	-2.997400	3.840300	-11.510000	22.393825	0.000957	20.901343
229.066881	-3.015200	3.839600	-11.576000	22.428067	0.000958	20.918562
230.064311	-3.017800	3.840000	-11.587000	22.423007	0.000960	20.892161
231.060974	-2.982000	3.841100	-11.454000	22.452762	0.000961	20.905836
232.077877	-2.984100	3.840000	-11.457000	22.434547	0.000959	20.903242
233.069496	-3.012900	3.838500	-11.564000	22.451294	0.000958	20.906737
234.065720	-2.984600	3.839300	-11.458000	22.409603	0.000961	20.917142
235.061951	-2.980900	3.839000	-11.443000	22.423559	0.000959	20.917841
236.066370	-2.982200	3.838000	-11.445000	22.447509	0.000959	20.921910
237.060650	-2.995000	3.838800	-11.496000	22.473774	0.000960	20.922135
238.071350	-3.006000	3.837800	-11.536000	22.463583	0.000963	20.915249
239.070104	-2.991100	3.838500	-11.481000	22.471931	0.000962	20.899903
240.064451	-2.987100	3.837900	-11.462000	22.450353	0.000963	20.904372
241.068689	-3.009400	3.836500	-11.545000	22.455461	0.000964	20.910909
242.066950	-3.014000	3.836700	-11.563000	22.479385	0.000966	20.917324
243.064897	-2.996700	3.836900	-11.497000	22.495658	0.000963	20.914654
244.062088	-2.994200	3.837200	-11.487000	22.493864	0.000965	20.918073
245.067911	-3.007000	3.835700	-11.533000	22.487461	0.000966	20.915929
246.065099	-3.013200	3.836000	-11.557000	22.515195	0.000966	20.925685
247.077622	-2.985100	3.835600	-11.448000	22.522573	0.000963	20.922168
248.079195	-3.011500	3.835700	-11.551000	22.544775	0.000970	20.924964
249.068397	-3.008700	3.834700	-11.537000	22.537475	0.000965	20.932351
250.066789	-3.003300	3.834600	-11.516000	22.554568	0.000971	20.943305
251.067627	-2.980400	3.837700	-11.437000	22.561670	0.000969	20.922445
252.074836	-3.004200	3.833700	-11.516000	22.568424	0.000970	20.918304
253.066142	-3.010100	3.834300	-11.540000	22.561647	0.000968	20.922896
254.073098	-3.013000	3.834300	-11.550000	22.576523	0.000968	20.955809
255.071206	-3.001700	3.834800	-11.510000	22.573110	0.000968	20.935324
256.066848	-2.988900	3.834600	-11.460000	22.583078	0.000971	20.932032
257.066357	-3.001100	3.833800	-11.505000	22.573484	0.000970	20.940913
258.078412	-3.021900	3.832100	-11.579000	22.550937	0.000970	20.928764
259.076859	-3.016000	3.832600	-11.558000	22.549242	0.000972	20.942712
260.072878	-3.012500	3.832600	-11.543000	22.582035	0.000971	20.935254
261.076272	-3.025600	3.830800	-11.589000	22.574336	0.000973	20.950774
262.072819	-2.995700	3.831800	-11.477000	22.614477	0.000974	20.949253
263.070557	-2.985000	3.832200	-11.439000	22.586994	0.000973	20.946383
264.073824	-2.997800	3.831400	-11.484000	22.619062	0.000974	20.942467
265.071575	-3.015600	3.830600	-11.551000	22.609819	0.000975	20.953596
266.069306	-2.994200	3.831200	-11.470000	22.635457	0.000975	20.943241
267.070952	-3.010000	3.830000	-11.527000	22.642733	0.000975	20.942468
268.073587	-2.984700	3.832100	-11.437000	22.656537	0.000976	20.941122
269.077653	-3.017200	3.830200	-11.554000	22.659777	0.000977	20.941996
270.073361	-3.000900	3.831800	-11.497000	22.659554	0.000977	20.956943
271.075039	-2.989700	3.831800	-11.455000	22.669320	0.000977	20.958190
272.071545	-3.015400	3.829700	-11.547000	22.681852	0.000978	20.952252
