LabVIEW Measurement	
Writer_Version	2
Reader_Version	2
Separator	Tab
Decimal_Separator	.
Multi_Headings	No
X_Columns	One
Time_Pref	Absolute
Operator	admin
Description	Clolumns are: time, Current, Voltage, Power, Battery Temp, and Chamber Temp
Date	2024/08/16
Time	13:06:06.104549407958984375
***End_of_Header***	
	
Channels	6						
Samples	1	1	1	1	1	1	
Date	2024/08/30	2024/08/30	2024/08/30	2024/08/30	2024/08/30	2024/08/30	
Time	17:14:55.1957125663757324219	17:14:55.2007470130920410156	17:14:55.2056965827941894531	17:14:55.1804246902465820312	17:14:55.1804246902465820312	17:14:55.1804246902465820312	
X_Dimension	Time	Time	Time	Time	Time	Time	
X0	0.0000000000000000E+0	0.0000000000000000E+0	0.0000000000000000E+0	0.0000000000000000E+0	0.0000000000000000E+0	0.0000000000000000E+0	
Delta_X	1.000000	1.000000	1.000000	1.000000	1.000000	1.000000	
***End_of_Header***							
X_Value	Untitled	Untitled 1	Untitled 2	Untitled 3	Untitled 4	Untitled 5	Comment
0.000000	3.400000E+38	4.105700	0.217540	20.969672	0.000945	20.671910
1.001043	-2.988400	3.941200	-11.777000	20.966034	0.000945	20.669219
2.001170	-2.997000	3.934700	-11.791000	20.996572	0.000942	20.658509
3.001507	-3.006400	3.929900	-11.814000	21.003707	0.000942	20.670389
4.001447	-2.989600	3.925900	-11.735000	20.973398	0.000941	20.691759
5.002931	-2.981100	3.922000	-11.691000	20.977092	0.000943	20.683125
6.002845	-2.992900	3.918700	-11.726000	20.972418	0.000942	20.677976
7.003254	-2.997800	3.917400	-11.743000	20.980836	0.000938	20.656995
8.007016	-3.019100	3.914000	-11.815000	20.961177	0.000938	20.666732
9.003647	-3.022400	3.913000	-11.825000	20.990668	0.000938	20.675366
10.009828	-3.010100	3.909600	-11.767000	20.981815	0.000939	20.670304
11.002923	-3.010700	3.907600	-11.762000	20.993070	0.000935	20.672078
12.003044	-3.003900	3.906100	-11.733000	21.003032	0.000935	20.668765
13.005521	-2.987400	3.906300	-11.669000	21.017918	0.000936	20.682233
14.006131	-3.007400	3.904500	-11.742000	21.016299	0.000934	20.690572
15.004329	-3.000800	3.902000	-11.707000	21.018104	0.000934	20.668667
16.004617	-3.007200	3.901300	-11.730000	21.018104	0.000936	20.666770
17.003638	-2.998600	3.899600	-11.692000	21.019631	0.000934	20.689163
18.004280	-3.000200	3.899000	-11.696000	21.020530	0.000932	20.671094
19.005730	-3.000800	3.899100	-11.699000	21.024428	0.000933	20.677364
20.005342	-2.988800	3.897800	-11.649000	21.019835	0.000932	20.684150
21.008285	-3.008600	3.896000	-11.721000	21.030264	0.000932	20.678934
22.005694	-3.017500	3.895000	-11.751000	21.022760	0.000931	20.682808
23.005638	-3.010000	3.895500	-11.724000	21.029175	0.000930	20.689225
24.011359	-3.017600	3.893600	-11.749000	21.061116	0.000930	20.667591
25.007381	-2.983200	3.894000	-11.616000	21.071699	0.000929	20.671539
26.008046	-2.976500	3.894400	-11.591000	21.072198	0.000928	20.675832
27.008195	-3.012900	3.892400	-11.726000	21.082904	0.000929	20.661409
28.009830	-3.009000	3.890600	-11.706000	21.088999	0.000928	20.665609
29.010235	-3.010100	3.890300	-11.709000	21.077942	0.000927	20.668775
30.013673	-2.994200	3.891200	-11.650000	21.088975	0.000926	20.660843
31.009183	-3.015700	3.889200	-11.728000	21.097809	0.000926	20.673948
32.011472	-2.991700	3.889600	-11.635000	21.110755	0.000926	20.688796
33.011229	-2.998900	3.888600	-11.660000	21.102883	0.000925	20.682817
34.012510	-2.985400	3.889100	-11.610000	21.135436	0.000925	20.687405
35.016886	-3.013100	3.887000	-11.710000	21.114291	0.000926	20.685220
36.012800	-2.994700	3.887600	-11.641000	21.117830	0.000925	20.665999
37.014107	-3.027400	3.885000	-11.761000	21.119782	0.000923	20.693559
38.012238	-3.001100	3.885400	-11.659000	21.153504	0.000923	20.701213
39.012216	-2.999800	3.884900	-11.653000	21.149220	0.000924	20.687917
40.014044	-3.004600	3.885200	-11.673000	21.164592	0.000924	20.675792
41.017004	-2.995300	3.885600	-11.637000	21.164013	0.000922	20.686593
42.012798	-2.997700	3.883900	-11.642000	21.146537	0.000923	20.675275
43.013450	-3.000600	3.883900	-11.654000	21.159329	0.000923	20.684278
44.014630	-2.997800	3.884100	-11.643000	21.168767	0.000922	20.663845
45.012866	-2.992200	3.882600	-11.616000	21.185535	0.000921	20.706702
46.018174	-3.008600	3.881500	-11.676000	21.151081	0.000921	20.692150
47.015780	-3.024000	3.881600	-11.737000	21.186385	0.000920	20.676729
48.016306	-3.002100	3.881200	-11.650000	21.204927	0.000922	20.669198
49.015984	-3.005500	3.880400	-11.661000	21.188811	0.000922	20.694805
50.014031	-2.988000	3.881400	-11.596000	21.197602	0.000921	20.677045
51.017212	-2.995000	3.880800	-11.622000	21.209673	0.000920	20.690544
52.014070	-3.004500	3.879500	-11.653000	21.210695	0.000920	20.699627
53.020419	-2.991900	3.880100	-11.608000	21.233527	0.000920	20.699708
54.016084	-2.995100	3.878700	-11.615000	21.212752	0.000918	20.687934
55.016241	-2.992400	3.878900	-11.606000	21.239572	0.000920	20.718085
56.015569	-2.980300	3.880200	-11.563000	21.239123	0.000919	20.685865
57.017104	-3.000700	3.879400	-11.638000	21.251428	0.000918	20.694382
58.016317	-2.998800	3.877900	-11.629000	21.251010	0.000919	20.676893
59.016905	-2.979500	3.878400	-11.555000	21.242676	0.000917	20.686100
60.014976	-2.996100	3.878200	-11.619000	21.261216	0.000919	20.691372
61.015482	-3.004200	3.876100	-11.644000	21.289580	0.000919	20.685134
62.018345	-2.977400	3.878100	-11.546000	21.286989	0.000917	20.691551
63.016935	-2.988800	3.877400	-11.588000	21.277836	0.000918	20.687610
64.017048	-3.001200	3.874600	-11.627000	21.311919	0.000919	20.689938
65.018941	-2.999400	3.876100	-11.625000	21.298272	0.000918	20.697150
66.017302	-2.995900	3.875600	-11.610000	21.302545	0.000917	20.697157
67.022095	-3.001900	3.875200	-11.631000	21.317304	0.000918	20.690585
68.019117	-3.013000	3.875300	-11.674000	21.338189	0.000918	20.698678
69.021100	-2.977900	3.876000	-11.541000	21.334127	0.000917	20.692242
70.019600	-2.997400	3.874000	-11.611000	21.356359	0.000919	20.706426
71.020188	-2.983300	3.875900	-11.562000	21.349029	0.000915	20.703359
72.022151	-2.986600	3.874700	-11.571000	21.378338	0.000917	20.691905
73.020298	-2.999500	3.874000	-11.618000	21.380136	0.000920	20.685168
74.019639	-2.984100	3.874900	-11.563000	21.354298	0.000917	20.708632
75.020190	-2.985500	3.874600	-11.567000	21.382832	0.000917	20.702091
76.019772	-2.999400	3.873600	-11.618000	21.387325	0.000917	20.694732
77.022589	-3.001400	3.872900	-11.623000	21.401223	0.000918	20.711958
78.022411	-3.011900	3.871800	-11.660000	21.376481	0.000916	20.706169
79.020546	-2.980400	3.872900	-11.542000	21.405962	0.000918	20.697732
80.021078	-3.015300	3.870200	-11.669000	21.417139	0.000917	20.711287
81.020927	-2.988400	3.871300	-11.568000	21.423503	0.000918	20.726664
82.022831	-2.994200	3.871300	-11.589000	21.409662	0.000918	20.714711
83.024644	-3.012200	3.869700	-11.655000	21.428094	0.000918	20.688107
84.021415	-2.994600	3.871200	-11.592000	21.459403	0.000916	20.689562
85.031718	-2.994100	3.870500	-11.588000	21.469656	0.000916	20.710728
86.022174	-3.002500	3.869600	-11.617000	21.462148	0.000916	20.694205
87.023593	-2.989800	3.871500	-11.574000	21.462751	0.000918	20.710932
88.025596	-2.995600	3.871200	-11.595000	21.452382	0.000916	20.711936
89.026944	-3.007800	3.869100	-11.637000	21.479590	0.000914	20.700278
90.022721	-3.024200	3.867200	-11.694000	21.481018	0.000917	20.723046
91.022996	-2.995300	3.868900	-11.588000	21.479270	0.000917	20.701855
92.022682	-2.998500	3.867300	-11.596000	21.478403	0.000918	20.718058
93.023972	-3.016000	3.868400	-11.665000	21.505708	0.000917	20.712663
94.028018	-2.979600	3.869000	-11.528000	21.500619	0.000916	20.724167
95.025204	-2.980300	3.868900	-11.530000	21.507014	0.000917	20.708754
96.030711	-2.984300	3.869000	-11.545000	21.513322	0.000918	20.728817
97.028717	-3.003200	3.868300	-11.616000	21.517063	0.000917	20.724500
98.027303	-3.017100	3.866000	-11.663000	21.540314	0.000918	20.731170
99.030094	-2.994800	3.867900	-11.583000	21.511661	0.000917	20.722888
100.028593	-2.970300	3.868000	-11.488000	21.559348	0.000917	20.675296
101.032857	-2.997600	3.866500	-11.589000	21.557428	0.000915	20.722217
102.028101	-3.031300	3.864500	-11.714000	21.559502	0.000918	20.715283
103.027564	-3.015800	3.866700	-11.658000	21.578586	0.000919	20.711619
104.028642	-3.009900	3.865700	-11.634000	21.595644	0.000917	20.718732
105.028109	-3.025400	3.865300	-11.694000	21.583503	0.000917	20.752578
106.028863	-2.998900	3.866300	-11.593000	21.601975	0.000917	20.721275
107.035932	-2.993100	3.866100	-11.571000	21.623655	0.000917	20.737281
108.028174	-3.020000	3.865000	-11.672000	21.631710	0.000917	20.723530
109.029533	-3.017800	3.864600	-11.662000	21.624985	0.000917	20.715852
110.034410	-2.974700	3.866500	-11.500000	21.623890	0.000919	20.723765
111.029630	-3.012400	3.864100	-11.639000	21.646110	0.000918	20.719449
112.030654	-2.999000	3.863300	-11.585000	21.633822	0.000916	20.737025
113.030540	-3.020600	3.862200	-11.664000	21.633693	0.000918	20.731205
114.032648	-2.999300	3.863100	-11.584000	21.650634	0.000919	20.731563
115.032907	-3.007500	3.863200	-11.616000	21.643755	0.000917	20.727524
116.034357	-3.013700	3.863500	-11.642000	21.626519	0.000917	20.721654
117.030671	-3.003500	3.862400	-11.599000	21.659397	0.000920	20.732746
118.031855	-3.010900	3.862900	-11.630000	21.651515	0.000918	20.731022
119.031806	-3.003600	3.863600	-11.604000	21.663858	0.000919	20.732943
120.031264	-2.995800	3.862800	-11.570000	21.655459	0.000918	20.729280
121.034471	-3.014600	3.862600	-11.644000	21.647184	0.000918	20.746603
122.031637	-3.005200	3.862100	-11.605000	21.692268	0.000918	20.725339
123.035931	-2.995200	3.863000	-11.569000	21.658678	0.000918	20.727759
124.032749	-2.983700	3.862900	-11.524000	21.666739	0.000921	20.733930
125.032489	-3.008500	3.861100	-11.615000	21.697430	0.000918	20.738092
126.034311	-3.010600	3.861800	-11.626000	21.700077	0.000919	20.730309
127.031927	-2.994800	3.861900	-11.565000	21.728805	0.000921	20.727291
128.033435	-2.997800	3.861800	-11.576000	21.732904	0.000919	20.730446
129.032731	-3.006000	3.860100	-11.602000	21.739031	0.000921	20.765503
130.032769	-3.003100	3.861300	-11.594000	21.745671	0.000920	20.728524
131.034703	-2.997700	3.860900	-11.573000	21.767292	0.000921	20.757277
132.036235	-3.005100	3.858700	-11.595000	21.742909	0.000920	20.740934
133.034522	-3.020200	3.859200	-11.653000	21.764906	0.000924	20.743982
134.037419	-2.997400	3.860300	-11.570000	21.751739	0.000922	20.729381
135.034207	-2.982100	3.860300	-11.511000	21.764505	0.000919	20.742159
136.036539	-3.004000	3.859000	-11.591000	21.784729	0.000923	20.746754
137.040465	-3.018300	3.858600	-11.645000	21.791934	0.000922	20.746378
138.036748	-3.017400	3.858300	-11.642000	21.817639	0.000922	20.764993
139.040545	-3.010200	3.858900	-11.615000	21.805753	0.000924	20.734604
140.038285	-2.978800	3.859400	-11.496000	21.834903	0.000922	20.739125
141.037640	-3.011800	3.859000	-11.622000	21.826801	0.000924	20.746188
142.040360	-3.000800	3.857800	-11.576000	21.847318	0.000923	20.757716
143.041642	-2.985500	3.858300	-11.518000	21.835223	0.000924	20.753195
144.037536	-3.004100	3.857000	-11.585000	21.832005	0.000924	20.776054
145.038177	-3.004400	3.858000	-11.589000	21.843971	0.000925	20.775228
146.037880	-2.993700	3.858700	-11.550000	21.855512	0.000925	20.753589
147.039224	-2.998200	3.858700	-11.568000	21.868050	0.000924	20.753336
148.038613	-3.018000	3.855700	-11.635000	21.877124	0.000926	20.751987
149.038723	-2.983800	3.858500	-11.511000	21.873015	0.000927	20.750719
150.041511	-2.999600	3.857900	-11.571000	21.862144	0.000927	20.747425
151.040931	-3.018800	3.856300	-11.640000	21.873131	0.000927	20.755103
152.041986	-3.000400	3.857600	-11.573000	21.896718	0.000926	20.755478
153.045115	-2.997200	3.857000	-11.559000	21.892897	0.000927	20.757344
154.041704	-3.011800	3.857000	-11.614000	21.870861	0.000927	20.759469
155.043288	-3.004700	3.857000	-11.588000	21.894939	0.000928	20.776458
156.041670	-2.985500	3.856100	-11.511000	21.897627	0.000929	20.756863
157.045048	-3.002400	3.855900	-11.576000	21.909396	0.000928	20.777652
158.045213	-3.010600	3.855300	-11.605000	21.918870	0.000929	20.766272
159.043767	-3.005800	3.855200	-11.586000	21.910410	0.000930	20.768236
160.042905	-2.995300	3.854900	-11.545000	21.924115	0.000930	20.754453
161.042787	-2.977700	3.856500	-11.483000	21.946582	0.000929	20.773624
162.043072	-3.007200	3.854400	-11.589000	21.937200	0.000932	20.768025
163.044383	-3.025600	3.854200	-11.660000	21.965466	0.000931	20.760758
164.041932	-3.009500	3.854800	-11.599000	21.990921	0.000931	20.757316
165.046339	-3.014300	3.854700	-11.618000	21.980181	0.000931	20.792558
166.042901	-3.023000	3.854000	-11.648000	21.987697	0.000931	20.769736
167.043974	-3.012900	3.852900	-11.605000	21.999612	0.000932	20.778818
168.047460	-2.988000	3.854400	-11.515000	21.977571	0.000931	20.753435
169.044357	-3.002000	3.851700	-11.561000	22.006415	0.000932	20.771404
170.044240	-3.002200	3.854000	-11.569000	22.014289	0.000933	20.784501
171.044068	-2.992100	3.852300	-11.525000	22.007380	0.000932	20.766680
172.043324	-2.990200	3.853000	-11.520000	22.002718	0.000934	20.776711
173.043173	-3.019100	3.853300	-11.632000	22.030565	0.000934	20.781829
174.045811	-3.006500	3.851800	-11.578000	22.049559	0.000933	20.783774
175.046233	-2.991300	3.852500	-11.522000	22.034347	0.000934	20.789408
176.045596	-2.982600	3.851900	-11.487000	22.072101	0.000935	20.786901
177.046482	-2.996200	3.852100	-11.540000	22.045560	0.000934	20.781667
178.044658	-3.006700	3.852200	-11.581000	22.063035	0.000935	20.792050
179.047217	-3.011300	3.851100	-11.596000	22.053335	0.000936	20.779967
180.045516	-2.988000	3.852000	-11.508000	22.093691	0.000935	20.810412
181.049523	-2.990400	3.850700	-11.514000	22.095888	0.000937	20.801705
182.045303	-2.999300	3.851900	-11.551000	22.103311	0.000936	20.779739
183.045334	-2.995900	3.850400	-11.534000	22.082767	0.000938	20.787621
184.047966	-3.028500	3.848800	-11.654000	22.126967	0.000939	20.812905
185.049416	-2.992300	3.849300	-11.517000	22.115551	0.000938	20.810011
186.045684	-2.995500	3.851400	-11.536000	22.131051	0.000938	20.793760
187.046456	-2.998800	3.848500	-11.540000	22.133173	0.000939	20.817696
188.045984	-3.018000	3.849100	-11.615000	22.129735	0.000938	20.794340
189.045178	-2.999000	3.849000	-11.543000	22.127539	0.000940	20.804943
190.047854	-3.012100	3.849100	-11.593000	22.121031	0.000939	20.787997
191.046152	-3.018000	3.847300	-11.610000	22.124175	0.000941	20.791618
192.045780	-3.018100	3.847700	-11.611000	22.150272	0.000941	20.817271
193.047852	-3.020900	3.847500	-11.622000	22.159245	0.000942	20.803970
194.047276	-2.997500	3.847300	-11.530000	22.173828	0.000942	20.800079
195.049935	-2.984700	3.847700	-11.483000	22.176965	0.000941	20.799900
196.048352	-3.004000	3.846900	-11.555000	22.180164	0.000943	20.816379
197.050739	-2.999800	3.846500	-11.537000	22.202945	0.000941	20.809316
198.048749	-2.998400	3.847700	-11.537000	22.194666	0.000944	20.815726
199.052290	-3.003400	3.846300	-11.551000	22.208554	0.000944	20.815406
200.051625	-3.010600	3.846200	-11.578000	22.209575	0.000946	20.810738
201.050411	-3.010700	3.846100	-11.579000	22.190762	0.000945	20.828411
202.052002	-3.010900	3.845300	-11.577000	22.202324	0.000946	20.821970
203.051528	-3.009000	3.846000	-11.572000	22.211248	0.000945	20.818577
204.052325	-3.008200	3.845700	-11.568000	22.207828	0.000947	20.833170
205.053689	-2.989500	3.846000	-11.496000	22.207859	0.000947	20.809021
206.054807	-2.998700	3.846700	-11.534000	22.232558	0.000948	20.815258
207.050652	-2.984900	3.845900	-11.479000	22.216587	0.000946	20.812543
208.052166	-3.007700	3.844400	-11.562000	22.223315	0.000947	20.817857
209.051176	-3.018300	3.845000	-11.604000	22.230745	0.000946	20.819606
210.052209	-2.981800	3.846000	-11.467000	22.245948	0.000946	20.821552
211.058155	-2.997200	3.844500	-11.520000	22.237775	0.000949	20.808153
212.052844	-2.994500	3.845000	-11.512000	22.260277	0.000947	20.812192
213.057072	-2.984700	3.845700	-11.477000	22.253353	0.000948	20.818535
214.051919	-3.002500	3.843900	-11.539000	22.256717	0.000948	20.813843
215.051696	-3.010000	3.844100	-11.570000	22.262171	0.000951	20.829735
216.057920	-2.999300	3.843500	-11.526000	22.264318	0.000951	20.823824
217.053303	-3.004600	3.843700	-11.547000	22.276735	0.000953	20.815395
218.053854	-2.971800	3.843700	-11.421000	22.298290	0.000951	20.817063
219.054402	-2.994400	3.842900	-11.506000	22.309802	0.000950	20.812470
220.054691	-3.001300	3.843100	-11.533000	22.315663	0.000953	20.803640
221.054999	-2.982400	3.842900	-11.459000	22.326523	0.000952	20.801712
222.058600	-3.022200	3.840800	-11.605000	22.351619	0.000954	20.810721
223.055195	-2.989000	3.842100	-11.484000	22.339259	0.000954	20.813516
224.056064	-3.001500	3.842800	-11.533000	22.363545	0.000954	20.800377
225.055675	-2.994700	3.841900	-11.504000	22.389335	0.000953	20.816245
226.056742	-3.016200	3.841500	-11.586000	22.377897	0.000955	20.792464
227.059968	-2.985900	3.841100	-11.468000	22.366656	0.000954	20.809656
228.057442	-3.008500	3.839500	-11.550000	22.395448	0.000954	20.821418
229.058824	-2.988300	3.842200	-11.481000	22.387251	0.000955	20.799934
230.059608	-2.983100	3.841300	-11.458000	22.418617	0.000956	20.812378
231.058865	-3.010100	3.838800	-11.553000	22.410077	0.000955	20.796714
232.060649	-2.999400	3.839800	-11.516000	22.397465	0.000957	20.822964
233.060270	-3.016800	3.838200	-11.577000	22.399783	0.000959	20.817225
234.059976	-2.996600	3.839400	-11.503000	22.380296	0.000957	20.798185
235.059865	-2.999000	3.839900	-11.515000	22.371128	0.000958	20.790901
236.059539	-3.007700	3.838600	-11.544000	22.386704	0.000958	20.792748
237.065164	-3.019600	3.837900	-11.588000	22.376687	0.000957	20.777027
238.060674	-3.000000	3.839300	-11.517000	22.366221	0.000958	20.813014
239.061648	-2.989800	3.838200	-11.474000	22.381127	0.000961	20.802811
240.063720	-2.990400	3.838600	-11.477000	22.403087	0.000958	20.796826
241.061374	-2.976900	3.838900	-11.427000	22.431545	0.000960	20.809677
242.065155	-2.985800	3.839300	-11.461000	22.433242	0.000960	20.782454
243.066862	-3.005100	3.837200	-11.531000	22.445128	0.000961	20.784399
244.065250	-3.017300	3.836600	-11.575000	22.451062	0.000963	20.804567
245.068067	-2.995000	3.838400	-11.495000	22.463576	0.000963	20.795287
246.063009	-2.974500	3.838400	-11.415000	22.477731	0.000963	20.796186
247.064991	-3.015800	3.837100	-11.571000	22.482914	0.000962	20.799955
248.065333	-2.995100	3.837500	-11.492000	22.500334	0.000963	20.766666
249.070084	-3.002100	3.837800	-11.521000	22.482195	0.000964	20.789278
250.065694	-2.985900	3.836100	-11.453000	22.502147	0.000966	20.802621
251.066555	-3.008700	3.836200	-11.539000	22.488971	0.000966	20.788003
252.066284	-3.009600	3.836500	-11.543000	22.523680	0.000968	20.799530
253.064928	-3.003100	3.836600	-11.520000	22.494179	0.000965	20.785158
254.068153	-2.992100	3.837300	-11.480000	22.518251	0.000968	20.776075
255.066291	-2.991400	3.836000	-11.473000	22.507916	0.000967	20.779475
256.066611	-3.003400	3.835100	-11.517000	22.524251	0.000967	20.776395
257.065763	-3.002900	3.834700	-11.514000	22.545360	0.000969	20.762921
258.066344	-3.014200	3.834200	-11.556000	22.526219	0.000971	20.785478
259.068022	-2.995100	3.834500	-11.484000	22.529508	0.000969	20.775021
260.067501	-2.979900	3.834700	-11.425000	22.553524	0.000973	20.793384
261.070537	-3.023100	3.833000	-11.587000	22.561056	0.000970	20.767737
262.068831	-2.997200	3.833400	-11.487000	22.565514	0.000975	20.762718
263.069106	-3.011200	3.833200	-11.541000	22.573513	0.000972	20.759824
264.071673	-3.001900	3.834100	-11.508000	22.578566	0.000974	20.775316
265.069384	-3.002400	3.832500	-11.506000	22.576248	0.000974	20.777736
266.070645	-2.989300	3.832800	-11.456000	22.587831	0.000975	20.776535
267.070343	-3.001600	3.831600	-11.499000	22.607584	0.000975	20.790156
268.069219	-3.005900	3.832500	-11.519000	22.599789	0.000976	20.762433
269.071670	-3.002400	3.831700	-11.502000	22.583016	0.000977	20.779774
270.073365	-3.011100	3.831200	-11.535000	22.589939	0.000975	20.763947
271.069073	-2.985100	3.833100	-11.440000	22.590184	0.000976	20.785056
272.070098	-3.012100	3.831000	-11.539000	22.587368	0.000977	20.767063
