LabVIEW Measurement	
Writer_Version	2
Reader_Version	2
Separator	Tab
Decimal_Separator	.
Multi_Headings	No
X_Columns	One
Time_Pref	Absolute
Operator	admin
Description	Clolumns are: time, Current, Voltage, Power, Battery Temp, and Chamber Temp
Date	2024/08/16
Time	13:06:06.104549407958984375
***End_of_Header***	
	
Channels	6						
Samples	1	1	1	1	1	1	
Date	2024/08/29	2024/08/29	2024/08/29	2024/08/29	2024/08/29	2024/08/29	
Time	10:13:24.2834863662719726563	10:13:24.2888641357421875	10:13:24.2939009666442871094	10:13:24.23990631103515625	10:13:24.23990631103515625	10:13:24.23990631103515625	
X_Dimension	Time	Time	Time	Time	Time	Time	
X0	0.0000000000000000E+0	0.0000000000000000E+0	0.0000000000000000E+0	0.0000000000000000E+0	0.0000000000000000E+0	0.0000000000000000E+0	
Delta_X	1.000000	1.000000	1.000000	1.000000	1.000000	1.000000	
***End_of_Header***							
X_Value	Untitled	Untitled 1	Untitled 2	Untitled 3	Untitled 4	Untitled 5	Comment
0.000000	-0.023200	4.101200	-0.095137	21.073326	0.000946	20.749037
0.997201	-3.009800	3.941400	-11.861000	21.074348	0.000946	20.782302
2.003015	-3.007900	3.934400	-11.833000	21.095925	0.000946	20.772591
2.994367	-3.007800	3.929500	-11.818000	21.085588	0.000944	20.773156
4.010168	-2.989400	3.926900	-11.737000	21.071546	0.000942	20.743937
4.993749	-3.003800	3.924300	-11.786000	21.092249	0.000942	20.775552
6.004088	-3.010900	3.918800	-11.799000	21.086813	0.000942	20.763950
6.993967	-3.015300	3.916700	-11.809000	21.109405	0.000941	20.783230
8.011830	-3.024700	3.914500	-11.839000	21.085089	0.000941	20.773606
8.994406	-2.986200	3.913800	-11.685000	21.093092	0.000941	20.764066
10.006899	-2.972300	3.912600	-11.629000	21.106013	0.000940	20.767509
11.007976	-3.010300	3.909800	-11.768000	21.109103	0.000939	20.758745
12.000363	-2.989000	3.909000	-11.683000	21.098225	0.000937	20.789116
13.005619	-3.012900	3.905700	-11.764000	21.113075	0.000938	20.771727
14.018182	-2.984300	3.906500	-11.657000	21.112520	0.000936	20.768801
15.000238	-2.993800	3.905300	-11.690000	21.121927	0.000938	20.791013
15.999962	-2.969300	3.904600	-11.592000	21.102320	0.000935	20.776142
16.998733	-3.012800	3.901500	-11.754000	21.124592	0.000935	20.767126
17.999830	-3.009300	3.900600	-11.736000	21.127116	0.000936	20.775341
19.005497	-3.005400	3.900500	-11.722000	21.134718	0.000935	20.795748
19.997550	-3.000300	3.898900	-11.697000	21.149641	0.000933	20.778432
21.003677	-2.994800	3.899300	-11.677000	21.168724	0.000934	20.788986
22.003911	-3.003900	3.896600	-11.704000	21.151783	0.000932	20.784368
22.996990	-2.986700	3.896200	-11.635000	21.179127	0.000934	20.788014
24.010656	-2.995700	3.896800	-11.673000	21.166003	0.000931	20.802860
25.003762	-2.984700	3.894800	-11.624000	21.176080	0.000932	20.784965
26.005978	-3.011800	3.895000	-11.730000	21.169068	0.000931	20.780796
27.006197	-3.004800	3.893300	-11.697000	21.163682	0.000930	20.800538
28.002539	-3.005500	3.892800	-11.699000	21.191697	0.000928	20.813864
29.001148	-3.003500	3.893100	-11.691000	21.187824	0.000929	20.781541
30.002978	-2.970000	3.892300	-11.559000	21.206089	0.000929	20.791276
31.004860	-3.001700	3.892800	-11.684000	21.222278	0.000926	20.789928
32.003591	-3.005100	3.892700	-11.697000	21.215937	0.000927	20.800180
33.011991	-3.003500	3.889500	-11.682000	21.215217	0.000927	20.792822
34.017311	-2.995400	3.890100	-11.651000	21.237333	0.000927	20.794557
34.999060	-3.010100	3.889100	-11.706000	21.236620	0.000925	20.817077
36.007997	-3.027300	3.888500	-11.771000	21.240904	0.000925	20.804293
37.018461	-2.990900	3.888500	-11.630000	21.257696	0.000925	20.808290
38.004434	-2.992100	3.888700	-11.634000	21.263138	0.000925	20.804251
39.013555	-2.998400	3.887900	-11.657000	21.253283	0.000925	20.804823
40.001482	-3.000900	3.887300	-11.665000	21.272192	0.000922	20.819947
41.009596	-2.996200	3.886700	-11.644000	21.267403	0.000923	20.811837
42.002603	-2.983100	3.886300	-11.592000	21.270518	0.000922	20.807840
43.006382	-2.999600	3.885600	-11.655000	21.281868	0.000922	20.807816
44.007219	-3.009500	3.885500	-11.693000	21.288437	0.000923	20.811068
45.011807	-3.000000	3.885500	-11.656000	21.310663	0.000921	20.811019
46.015489	-3.004400	3.882900	-11.664000	21.308546	0.000923	20.814116
47.016563	-2.994000	3.884900	-11.631000	21.313963	0.000923	20.822381
48.018241	-2.998800	3.884300	-11.647000	21.324260	0.000921	20.818458
49.010642	-3.021500	3.884200	-11.735000	21.333647	0.000921	20.830694
50.018817	-2.983400	3.882700	-11.582000	21.340110	0.000922	20.824832
51.010559	-2.992100	3.882600	-11.617000	21.329252	0.000922	20.808279
52.011626	-2.999100	3.884000	-11.648000	21.344572	0.000919	20.795632
53.005464	-3.001900	3.882100	-11.653000	21.349891	0.000922	20.816599
54.018605	-2.978500	3.882400	-11.563000	21.360538	0.000921	20.821088
54.988836	-2.979700	3.881300	-11.565000	21.368749	0.000920	20.817923
56.004309	-2.996600	3.880400	-11.627000	21.375661	0.000921	20.831477
56.997298	-2.983700	3.880700	-11.578000	21.376184	0.000922	20.827259
58.021176	-2.987800	3.880700	-11.594000	21.398114	0.000921	20.827863
59.024160	-3.001700	3.878900	-11.643000	21.371175	0.000921	20.809445
60.009650	-3.029400	3.877500	-11.746000	21.404047	0.000921	20.838066
61.021240	-2.992200	3.879600	-11.607000	21.430684	0.000922	20.826311
62.026299	-3.000400	3.879800	-11.638000	21.410288	0.000920	20.827241
63.016310	-2.991800	3.880000	-11.608000	21.428500	0.000921	20.818436
64.015265	-2.995700	3.879000	-11.619000	21.445055	0.000920	20.826465
65.021460	-3.028000	3.875000	-11.732000	21.454940	0.000919	20.818338
66.023650	-3.011300	3.876900	-11.674000	21.450496	0.000921	20.832857
66.999120	-2.986100	3.879200	-11.583000	21.455210	0.000920	20.814815
67.993867	-2.992100	3.877600	-11.600000	21.466165	0.000919	20.837156
68.997437	-2.997200	3.877400	-11.621000	21.442724	0.000920	20.826029
70.030813	-2.988600	3.876800	-11.585000	21.467611	0.000920	20.827224
71.021647	-2.985600	3.877900	-11.578000	21.468584	0.000918	20.822507
72.023724	-2.990900	3.876100	-11.591000	21.481027	0.000919	20.833061
73.024475	-2.986600	3.876100	-11.575000	21.494394	0.000919	20.812297
74.012034	-2.994900	3.876000	-11.607000	21.495767	0.000920	20.844489
75.017245	-2.990500	3.876300	-11.590000	21.501127	0.000920	20.830887
76.025006	-3.014700	3.874600	-11.679000	21.503699	0.000921	20.823978
77.013595	-2.996700	3.874300	-11.609000	21.508979	0.000920	20.815036
78.020941	-2.998300	3.874300	-11.616000	21.543324	0.000919	20.832334
79.001829	-2.986900	3.874400	-11.571000	21.541527	0.000920	20.820579
80.016426	-2.994100	3.874300	-11.599000	21.532980	0.000917	20.827199
81.024076	-2.993600	3.872600	-11.591000	21.557066	0.000919	20.808152
82.018086	-3.005100	3.873300	-11.638000	21.547835	0.000920	20.824045
83.022169	-3.002300	3.872100	-11.625000	21.550751	0.000919	20.810843
84.002934	-2.983000	3.875000	-11.558000	21.556013	0.000917	20.813737
85.005802	-3.004700	3.872600	-11.635000	21.571723	0.000919	20.816181
86.005765	-3.009400	3.871800	-11.651000	21.580365	0.000920	20.821983
87.002356	-2.992200	3.873200	-11.588000	21.575293	0.000919	20.824969
88.005746	-2.997300	3.872300	-11.605000	21.595022	0.000919	20.809624
88.998130	-2.995700	3.872300	-11.600000	21.583724	0.000919	20.810172
90.005922	-3.014700	3.871400	-11.670000	21.609219	0.000920	20.807710
91.009504	-2.986900	3.870500	-11.559000	21.592505	0.000918	20.807580
92.016892	-3.009800	3.871000	-11.650000	21.580610	0.000918	20.820333
93.002909	-3.002500	3.870600	-11.621000	21.619938	0.000919	20.808005
94.004901	-2.994200	3.871500	-11.591000	21.620313	0.000919	20.830665
95.013695	-2.997900	3.872200	-11.606000	21.619144	0.000919	20.813849
96.008990	-2.978300	3.870800	-11.528000	21.602936	0.000919	20.814225
97.028223	-2.995700	3.870900	-11.595000	21.638823	0.000917	20.796084
98.024981	-3.003100	3.870300	-11.622000	21.650700	0.000919	20.792797
99.008712	-3.011700	3.868500	-11.650000	21.654213	0.000920	20.800106
100.033032	-3.010800	3.869200	-11.648000	21.654761	0.000918	20.810137
101.019173	-2.988800	3.869400	-11.564000	21.663942	0.000920	20.794195
102.033981	-3.013000	3.868500	-11.655000	21.659660	0.000920	20.783271
103.023106	-3.005100	3.867300	-11.620000	21.641975	0.000918	20.810618
104.030189	-2.987900	3.868300	-11.557000	21.652048	0.000920	20.816431
105.018161	-2.997400	3.868400	-11.594000	21.672084	0.000920	20.773894
106.036287	-3.013300	3.868600	-11.657000	21.686298	0.000920	20.788592
107.027884	-3.003900	3.868600	-11.620000	21.678963	0.000920	20.802115
108.061449	-2.997000	3.868100	-11.592000	21.711285	0.000920	20.775667
109.015362	-3.001900	3.867400	-11.608000	21.713507	0.000919	20.791167
110.039737	-2.990600	3.868300	-11.567000	21.708980	0.000922	20.798490
111.035986	-2.994000	3.866000	-11.574000	21.701873	0.000922	20.803706
112.023311	-3.001000	3.866400	-11.602000	21.722523	0.000922	20.803035
113.033446	-2.989400	3.865900	-11.555000	21.740428	0.000921	20.787289
114.036199	-2.995000	3.866100	-11.578000	21.743270	0.000921	20.774961
115.036354	-2.982500	3.866200	-11.528000	21.740908	0.000922	20.785400
116.006022	-3.011400	3.865300	-11.639000	21.746397	0.000923	20.785203
117.020558	-2.996000	3.866100	-11.582000	21.748987	0.000921	20.769303
118.004843	-2.995500	3.867300	-11.584000	21.764849	0.000921	20.789920
119.004575	-2.995600	3.865800	-11.580000	21.782280	0.000922	20.760423
120.014258	-2.983700	3.864600	-11.529000	21.786519	0.000923	20.778891
121.012319	-3.004100	3.866700	-11.615000	21.772780	0.000921	20.782210
122.007195	-3.003400	3.865700	-11.610000	21.793681	0.000922	20.775628
123.005083	-3.010000	3.864300	-11.630000	21.784459	0.000923	20.781097
124.017934	-3.001700	3.863700	-11.596000	21.805100	0.000924	20.790851
125.010358	-2.988400	3.864700	-11.547000	21.811038	0.000924	20.779724
126.022248	-2.964700	3.865800	-11.460000	21.823053	0.000925	20.780370
127.016179	-3.005700	3.864100	-11.613000	21.823804	0.000923	20.792501
128.020667	-3.026700	3.862400	-11.689000	21.838767	0.000924	20.775709
129.036303	-3.005700	3.863900	-11.613000	21.827773	0.000923	20.774662
130.026710	-2.978800	3.864000	-11.508000	21.849041	0.000924	20.785993
131.036123	-3.022600	3.861700	-11.671000	21.818551	0.000924	20.770174
132.044698	-3.031200	3.862900	-11.709000	21.857322	0.000925	20.778161
133.034619	-2.998500	3.862800	-11.582000	21.846051	0.000924	20.776362
134.021178	-2.997500	3.863300	-11.579000	21.838317	0.000924	20.766725
135.040956	-2.995700	3.861100	-11.566000	21.839142	0.000925	20.766127
136.040472	-2.978100	3.861800	-11.498000	21.867270	0.000925	20.777212
137.024130	-2.996500	3.863000	-11.575000	21.848346	0.000925	20.749735
138.021526	-2.992000	3.862300	-11.555000	21.860449	0.000925	20.783187
139.013251	-2.986400	3.862200	-11.533000	21.847251	0.000924	20.774244
140.040869	-3.009200	3.860500	-11.615000	21.853908	0.000928	20.773795
141.045310	-2.985600	3.861400	-11.527000	21.869842	0.000926	20.765088
142.022310	-2.998500	3.860900	-11.576000	21.879422	0.000926	20.759503
143.019364	-2.981400	3.861200	-11.511000	21.886601	0.000927	20.770957
144.041471	-2.987900	3.860500	-11.534000	21.901139	0.000927	20.777448
145.047223	-2.995000	3.860400	-11.560000	21.897798	0.000927	20.767466
146.041265	-2.984900	3.859200	-11.518000	21.892489	0.000926	20.784437
147.024272	-3.026500	3.859500	-11.679000	21.915121	0.000927	20.748769
148.046759	-3.039000	3.858400	-11.725000	21.926416	0.000930	20.772404
149.024099	-2.995500	3.861100	-11.563000	21.948409	0.000928	20.752693
150.023743	-3.008700	3.856900	-11.603000	21.948736	0.000928	20.759184
151.043519	-3.004700	3.859700	-11.596000	21.968458	0.000929	20.758063
152.046709	-3.005500	3.858400	-11.595000	21.967781	0.000929	20.769239
153.041167	-2.993300	3.858600	-11.549000	21.963697	0.000930	20.743813
154.042271	-2.998500	3.858900	-11.570000	21.984703	0.000929	20.758204
155.047904	-3.015000	3.859000	-11.634000	21.981777	0.000928	20.760964
156.040996	-3.040600	3.857500	-11.728000	21.960683	0.000928	20.755496
157.046050	-2.988600	3.858400	-11.531000	21.973683	0.000929	20.753810
158.048454	-3.005300	3.856700	-11.589000	22.000004	0.000929	20.747442
159.043296	-2.985000	3.856800	-11.510000	22.003351	0.000932	20.752689
160.043384	-3.006900	3.856900	-11.596000	22.016508	0.000933	20.754480
161.036451	-2.997000	3.856200	-11.556000	22.024290	0.000930	20.755633
162.031835	-3.014900	3.856500	-11.625000	21.997994	0.000931	20.745903
163.022647	-3.006400	3.855700	-11.589000	22.025915	0.000934	20.745879
164.034867	-2.976300	3.857400	-11.479000	22.030430	0.000931	20.749451
165.028882	-3.016500	3.855800	-11.630000	22.032577	0.000933	20.751600
166.023624	-3.003000	3.855800	-11.579000	22.021087	0.000931	20.759538
167.032903	-2.983100	3.857400	-11.506000	22.033360	0.000932	20.738158
168.041965	-2.964900	3.856600	-11.432000	22.027971	0.000933	20.752204
169.029696	-3.024500	3.853100	-11.653000	22.034960	0.000932	20.754459
170.027797	-2.998500	3.855100	-11.559000	22.031227	0.000935	20.744558
171.037850	-3.032800	3.852800	-11.683000	22.066195	0.000935	20.741158
172.034589	-3.009800	3.853200	-11.596000	22.050000	0.000937	20.741067
173.031571	-2.995000	3.855500	-11.546000	22.066928	0.000935	20.747108
174.027106	-2.987100	3.854400	-11.512000	22.085824	0.000935	20.740420
175.045786	-2.995200	3.854100	-11.543000	22.087228	0.000935	20.749412
176.054425	-2.981900	3.854800	-11.493000	22.078278	0.000934	20.747565
177.027017	-2.976900	3.855100	-11.474000	22.076040	0.000937	20.737263
178.041553	-2.980000	3.855100	-11.486000	22.104513	0.000937	20.749173
179.028856	-2.997000	3.854900	-11.552000	22.117823	0.000938	20.735471
180.033300	-3.026700	3.851700	-11.656000	22.115455	0.000937	20.738791
181.030203	-3.000800	3.853200	-11.560000	22.124878	0.000937	20.742535
182.033365	-3.008200	3.853700	-11.591000	22.132961	0.000938	20.741618
183.033687	-3.015300	3.851600	-11.613000	22.151488	0.000938	20.763961
184.039341	-2.994300	3.853400	-11.537000	22.162977	0.000938	20.729943
185.035918	-2.996500	3.852200	-11.541000	22.165646	0.000939	20.731668
186.052490	-2.995500	3.851400	-11.535000	22.166790	0.000940	20.734235
187.033055	-2.991400	3.851300	-11.518000	22.201996	0.000940	20.729655
188.041656	-3.008100	3.850600	-11.582000	22.194247	0.000940	20.747027
189.043986	-3.004700	3.850700	-11.569000	22.190803	0.000940	20.747372
190.039017	-3.004400	3.850200	-11.568000	22.200920	0.000941	20.741854
191.035188	-2.995300	3.851600	-11.535000	22.200821	0.000943	20.737014
192.040359	-3.009400	3.851100	-11.588000	22.214636	0.000942	20.716705
193.034531	-3.003700	3.850000	-11.563000	22.203417	0.000943	20.721594
194.074790	-2.979600	3.850300	-11.471000	22.210030	0.000941	20.729163
195.059587	-3.015300	3.848800	-11.603000	22.218554	0.000942	20.742440
196.038592	-2.999600	3.850200	-11.547000	22.206160	0.000940	20.754688
197.037802	-3.004900	3.848900	-11.563000	22.235308	0.000944	20.740249
198.038629	-3.003200	3.848000	-11.554000	22.218350	0.000945	20.750772
199.044993	-2.982300	3.850000	-11.480000	22.230867	0.000944	20.725844
200.031507	-2.988600	3.849600	-11.505000	22.234697	0.000945	20.731576
201.054442	-3.003600	3.849000	-11.560000	22.218130	0.000944	20.732532
202.042089	-3.001400	3.849000	-11.551000	22.221673	0.000946	20.718060
203.039259	-2.997700	3.848600	-11.536000	22.203277	0.000946	20.718608
204.040232	-3.000300	3.848000	-11.543000	22.218161	0.000946	20.724028
205.062073	-2.975500	3.848100	-11.449000	22.198892	0.000948	20.740298
206.047933	-2.978500	3.847400	-11.458000	22.219926	0.000949	20.734330
207.036109	-2.986700	3.848500	-11.493000	22.233943	0.000947	20.712328
208.044234	-2.992800	3.847600	-11.514000	22.239349	0.000947	20.715370
209.053523	-2.984300	3.847700	-11.482000	22.252012	0.000949	20.722834
210.044733	-2.994400	3.846200	-11.516000	22.275363	0.000950	20.729146
211.058659	-3.000200	3.846400	-11.539000	22.263973	0.000949	20.732440
212.068290	-3.017700	3.845800	-11.604000	22.255758	0.000949	20.724689
213.064237	-2.988200	3.846500	-11.493000	22.262339	0.000951	20.735546
214.065861	-2.991400	3.846500	-11.506000	22.265352	0.000951	20.709163
215.055637	-3.012600	3.845700	-11.584000	22.292344	0.000949	20.716750
216.070470	-2.980500	3.846400	-11.462000	22.299650	0.000953	20.733551
217.055017	-3.004700	3.845200	-11.554000	22.312608	0.000952	20.706220
218.062971	-3.021800	3.844600	-11.617000	22.319139	0.000953	20.745005
219.069338	-3.016500	3.844100	-11.593000	22.325775	0.000955	20.733157
220.040491	-3.021500	3.844800	-11.616000	22.332724	0.000955	20.715932
221.060637	-3.017800	3.843300	-11.597000	22.356880	0.000954	20.737277
222.041324	-2.980400	3.843700	-11.454000	22.391046	0.000955	20.714116
223.042560	-2.984500	3.844200	-11.473000	22.371429	0.000953	20.712490
224.045453	-2.994600	3.844600	-11.512000	22.370114	0.000956	20.721131
225.041670	-2.996800	3.843300	-11.516000	22.372334	0.000954	20.711974
226.057700	-2.987100	3.844200	-11.481000	22.359248	0.000956	20.721629
227.068463	-2.999400	3.845100	-11.532000	22.364056	0.000955	20.733083
228.065744	-2.996400	3.844200	-11.518000	22.362236	0.000957	20.739796
229.063866	-3.011800	3.841800	-11.569000	22.362187	0.000957	20.711770
230.071898	-2.985100	3.843600	-11.472000	22.371836	0.000957	20.698672
231.045016	-2.993600	3.843100	-11.503000	22.381183	0.000956	20.724629
232.051093	-3.007300	3.842600	-11.555000	22.378963	0.000959	20.695851
233.049807	-3.009100	3.841300	-11.558000	22.380930	0.000960	20.725799
234.058162	-3.020200	3.842600	-11.605000	22.374407	0.000959	20.713101
235.054378	-2.996800	3.841800	-11.511000	22.363418	0.000959	20.722012
236.050694	-2.994200	3.840700	-11.498000	22.373256	0.000959	20.720484
237.061970	-2.982800	3.841000	-11.456000	22.374284	0.000959	20.707762
238.049645	-3.006300	3.840500	-11.545000	22.388464	0.000961	20.702047
239.064270	-2.967700	3.841500	-11.400000	22.399232	0.000962	20.695286
240.062303	-2.990000	3.841800	-11.486000	22.403223	0.000962	20.701654
241.076818	-2.994100	3.841300	-11.500000	22.400088	0.000964	20.711791
242.061265	-2.990500	3.839900	-11.481000	22.418849	0.000962	20.722044
243.048084	-2.997100	3.839500	-11.506000	22.439559	0.000963	20.691573
244.051312	-3.026800	3.838300	-11.617000	22.461468	0.000963	20.697393
245.048942	-3.008700	3.839300	-11.550000	22.464383	0.000963	20.724496
246.054028	-3.005600	3.840400	-11.542000	22.459101	0.000962	20.702609
247.051288	-2.985300	3.839300	-11.459000	22.488645	0.000964	20.713231
248.072915	-3.012900	3.840100	-11.569000	22.491777	0.000964	20.700720
249.068951	-3.005600	3.839300	-11.538000	22.513254	0.000964	20.687140
250.067987	-2.984100	3.839000	-11.454000	22.515172	0.000967	20.692381
251.074695	-3.005100	3.838500	-11.533000	22.520983	0.000966	20.708159
252.070358	-3.008400	3.837600	-11.544000	22.518942	0.000966	20.697580
253.073490	-3.005100	3.838000	-11.532000	22.536557	0.000968	20.705739
254.071592	-2.997000	3.839100	-11.504000	22.517571	0.000968	20.679609
255.070245	-2.989500	3.837900	-11.473000	22.522509	0.000968	20.682658
256.079864	-3.017500	3.835700	-11.572000	22.501228	0.000970	20.695486
257.066309	-3.020400	3.837300	-11.589000	22.540401	0.000969	20.704847
258.048263	-2.999600	3.836100	-11.506000	22.514043	0.000970	20.702631
259.050349	-3.022700	3.836100	-11.595000	22.532981	0.000968	20.704053
260.069897	-3.015200	3.836200	-11.565000	22.551322	0.000972	20.695395
261.052074	-3.021100	3.834300	-11.581000	22.531511	0.000971	20.708746
262.047076	-2.993000	3.835800	-11.480000	22.502459	0.000973	20.694348
263.063367	-2.991200	3.834700	-11.470000	22.486990	0.000971	20.702564
264.049563	-3.006700	3.835500	-11.531000	22.495112	0.000973	20.663753
265.062727	-3.009000	3.834900	-11.537000	22.486548	0.000972	20.695009
266.061711	-3.003900	3.835500	-11.518000	22.489340	0.000975	20.681208
267.057248	-3.000900	3.834400	-11.505000	22.489371	0.000975	20.685033
268.080034	-2.991700	3.835000	-11.473000	22.446132	0.000974	20.673024
269.077027	-3.000900	3.834700	-11.506000	22.483069	0.000976	20.691050
270.079825	-3.007300	3.834100	-11.528000	22.516383	0.000976	20.679367
271.074612	-2.969800	3.834600	-11.387000	22.540984	0.000976	20.674608
272.085473	-2.980200	3.835400	-11.428000	22.525876	0.000977	20.709740
