LabVIEW Measurement	
Writer_Version	2
Reader_Version	2
Separator	Tab
Decimal_Separator	.
Multi_Headings	No
X_Columns	One
Time_Pref	Absolute
Operator	admin
Description	Clolumns are: time, Current, Voltage, Power, Battery Temp, and Chamber Temp
Date	2024/08/16
Time	13:06:06.104549407958984375
***End_of_Header***	
	
Channels	6						
Samples	1	1	1	1	1	1	
Date	2024/08/26	2024/08/26	2024/08/26	2024/08/26	2024/08/26	2024/08/26	
Time	04:26:52.3271007537841796875	04:26:52.3311352729797363281	04:26:52.336101531982421875	04:26:52.312103271484375	04:26:52.312103271484375	04:26:52.312103271484375	
X_Dimension	Time	Time	Time	Time	Time	Time	
X0	0.0000000000000000E+0	0.0000000000000000E+0	0.0000000000000000E+0	0.0000000000000000E+0	0.0000000000000000E+0	0.0000000000000000E+0	
Delta_X	1.000000	1.000000	1.000000	1.000000	1.000000	1.000000	
***End_of_Header***							
X_Value	Untitled	Untitled 1	Untitled 2	Untitled 3	Untitled 4	Untitled 5	Comment
0.000000	0.020265	4.108000	0.083136	21.060607	0.000971	20.940194
0.998413	-3.032400	3.947300	-11.968000	21.090023	0.000972	20.920307
1.998642	-2.999100	3.942200	-11.823000	21.084707	0.000972	20.934428
2.998643	-3.005500	3.936800	-11.831000	21.066862	0.000973	20.932226
4.002707	-2.998000	3.932700	-11.788000	21.063579	0.000971	20.915193
4.998710	-2.987400	3.928600	-11.735000	21.076471	0.000970	20.926190
5.998905	-2.984600	3.925800	-11.715000	21.085544	0.000969	20.916775
6.998907	-2.979100	3.925000	-11.692000	21.067785	0.000968	20.947846
8.000133	-3.003900	3.923200	-11.783000	21.087237	0.000968	20.918468
9.000587	-3.016900	3.918400	-11.820000	21.102584	0.000968	20.937136
10.000091	-2.990400	3.918400	-11.716000	21.074651	0.000967	20.933378
11.001209	-3.011100	3.915800	-11.790000	21.080110	0.000966	20.919874
12.000183	-3.001100	3.913600	-11.744000	21.075539	0.000966	20.912932
13.002225	-3.004200	3.913100	-11.754000	21.104996	0.000963	20.926273
14.000477	-2.997900	3.911600	-11.726000	21.103252	0.000964	20.917418
15.002077	-3.018000	3.910100	-11.799000	21.118023	0.000963	20.902323
16.001461	-2.985200	3.909200	-11.666000	21.091519	0.000962	20.895253
17.002663	-3.021600	3.907100	-11.805000	21.109135	0.000961	20.900545
18.001752	-3.003200	3.906600	-11.730000	21.100094	0.000959	20.885812
19.002852	-2.984800	3.905600	-11.657000	21.106409	0.000960	20.890706
20.005173	-2.995200	3.904300	-11.693000	21.127037	0.000961	20.909442
21.004411	-3.006200	3.903100	-11.733000	21.106052	0.000957	20.899358
22.006238	-3.026000	3.899800	-11.798000	21.115524	0.000958	20.889392
23.006237	-2.983600	3.903100	-11.644000	21.126426	0.000957	20.911202
24.005291	-2.993100	3.901500	-11.676000	21.106120	0.000955	20.903218
25.010144	-2.972400	3.902200	-11.598000	21.136677	0.000955	20.908179
26.009581	-2.993900	3.899100	-11.672000	21.146851	0.000958	20.881374
27.007405	-3.005900	3.899000	-11.720000	21.168824	0.000955	20.894344
28.014407	-2.982600	3.898700	-11.627000	21.157320	0.000952	20.890898
29.011169	-3.001400	3.896200	-11.694000	21.147493	0.000953	20.883914
30.007394	-3.007400	3.897200	-11.719000	21.172428	0.000954	20.893209
31.011595	-3.027600	3.895300	-11.793000	21.178759	0.000954	20.888162
32.011815	-2.981600	3.896000	-11.615000	21.162821	0.000953	20.919157
33.007869	-3.003900	3.895700	-11.702000	21.160289	0.000950	20.899557
34.010870	-2.987700	3.895900	-11.639000	21.187476	0.000950	20.898304
35.011763	-3.008200	3.895300	-11.717000	21.192868	0.000950	20.888525
36.007439	-2.973200	3.893800	-11.575000	21.216914	0.000949	20.889346
37.012434	-3.010400	3.892600	-11.717000	21.181728	0.000949	20.881649
38.011437	-2.957100	3.894600	-11.515000	21.204006	0.000951	20.900140
39.008434	-2.985400	3.893000	-11.622000	21.206968	0.000950	20.890776
40.012830	-3.007600	3.891800	-11.704000	21.201703	0.000948	20.876501
41.015644	-3.002500	3.890100	-11.679000	21.227619	0.000950	20.884409
42.011646	-2.982800	3.890800	-11.605000	21.226392	0.000947	20.872276
43.015076	-2.985200	3.891400	-11.615000	21.225418	0.000948	20.903068
44.014551	-2.997000	3.887800	-11.649000	21.235591	0.000947	20.890487
45.014030	-3.000200	3.887600	-11.662000	21.223259	0.000948	20.876728
46.017580	-2.994300	3.890200	-11.647000	21.240051	0.000947	20.878828
47.014638	-3.011200	3.887000	-11.704000	21.249623	0.000945	20.873231
48.014863	-3.020600	3.885600	-11.736000	21.280253	0.000947	20.865467
49.018898	-3.029500	3.887300	-11.775000	21.246974	0.000946	20.876270
50.016710	-2.987700	3.887800	-11.615000	21.266432	0.000946	20.870132
51.015713	-2.976900	3.888300	-11.574000	21.273599	0.000946	20.866871
52.018739	-2.991000	3.886800	-11.625000	21.305414	0.000945	20.865983
53.015711	-3.027200	3.885000	-11.759000	21.284754	0.000945	20.868548
54.015697	-3.011000	3.884200	-11.695000	21.316881	0.000947	20.870817
55.018888	-2.994300	3.885400	-11.633000	21.318853	0.000945	20.879427
56.016074	-2.998000	3.885400	-11.648000	21.327740	0.000946	20.861767
57.016074	-3.002000	3.885500	-11.662000	21.310297	0.000944	20.851903
58.018319	-2.987700	3.885800	-11.608000	21.335695	0.000943	20.857872
59.016292	-2.992300	3.884900	-11.623000	21.321147	0.000945	20.876980
60.020376	-3.008300	3.881700	-11.675000	21.312116	0.000945	20.863679
61.019219	-3.005600	3.883000	-11.670000	21.350387	0.000944	20.874466
62.017719	-3.011400	3.883900	-11.694000	21.353247	0.000943	20.854569
63.019177	-2.981400	3.883800	-11.579000	21.342499	0.000941	20.855670
64.019917	-3.003100	3.881300	-11.654000	21.343625	0.000941	20.834038
65.018916	-2.975700	3.883800	-11.556000	21.345689	0.000942	20.864551
66.019145	-2.994400	3.882100	-11.623000	21.352063	0.000942	20.853385
67.027009	-2.999400	3.881100	-11.640000	21.357817	0.000941	20.863409
68.019006	-2.981700	3.881600	-11.573000	21.351513	0.000941	20.868955
69.019009	-2.988300	3.879600	-11.592000	21.365731	0.000942	20.861369
70.018563	-2.997500	3.881600	-11.634000	21.358969	0.000943	20.854604
71.020644	-2.987300	3.880500	-11.592000	21.390247	0.000941	20.867405
72.018648	-3.004000	3.878800	-11.650000	21.383062	0.000940	20.864010
73.021646	-2.988700	3.879000	-11.591000	21.396239	0.000942	20.847323
74.021646	-2.987500	3.878800	-11.587000	21.397044	0.000941	20.845757
75.019047	-3.005600	3.878000	-11.654000	21.408561	0.000941	20.851116
76.018652	-2.987400	3.879600	-11.589000	21.427618	0.000940	20.864968
77.019649	-2.988700	3.879600	-11.593000	21.425233	0.000939	20.850727
78.018483	-2.973400	3.877400	-11.526000	21.428820	0.000943	20.862851
79.019493	-2.995500	3.877900	-11.616000	21.439246	0.000941	20.861903
80.022526	-3.001900	3.878100	-11.640000	21.436040	0.000939	20.858695
81.019813	-2.990700	3.878300	-11.598000	21.464845	0.000938	20.845318
82.021154	-3.003000	3.877200	-11.642000	21.464988	0.000940	20.852573
83.023798	-3.007500	3.876300	-11.656000	21.473257	0.000941	20.847096
84.021793	-3.014900	3.878800	-11.694000	21.498363	0.000940	20.834759
85.021756	-3.006800	3.876800	-11.655000	21.492015	0.000942	20.858279
86.024083	-2.997700	3.875800	-11.618000	21.512782	0.000939	20.834963
87.023889	-3.013200	3.875300	-11.676000	21.506275	0.000942	20.851685
88.022901	-3.004600	3.875700	-11.644000	21.507916	0.000939	20.845741
89.026101	-3.005600	3.874500	-11.644000	21.506994	0.000941	20.850034
90.024437	-2.986200	3.875300	-11.572000	21.503330	0.000939	20.855376
91.025439	-3.000800	3.875800	-11.629000	21.513409	0.000938	20.858348
92.027439	-3.004000	3.874700	-11.639000	21.519197	0.000938	20.848967
93.025485	-3.008500	3.874900	-11.657000	21.528623	0.000940	20.849865
94.024823	-3.001500	3.874200	-11.627000	21.543939	0.000939	20.843854
95.027042	-3.009600	3.872500	-11.654000	21.553314	0.000939	20.827631
96.025215	-3.010000	3.872800	-11.656000	21.555979	0.000940	20.863013
97.024435	-2.978600	3.874400	-11.539000	21.559922	0.000941	20.841830
98.025437	-2.986000	3.872500	-11.562000	21.563560	0.000941	20.847841
99.025486	-2.994900	3.873900	-11.601000	21.562368	0.000939	20.833846
100.024531	-2.995000	3.873600	-11.600000	21.585544	0.000940	20.841390
101.028000	-2.986200	3.873700	-11.567000	21.586915	0.000941	20.846555
102.027002	-2.988100	3.872600	-11.569000	21.588066	0.000937	20.855767
103.026659	-3.023700	3.874100	-11.713000	21.605868	0.000942	20.837072
104.030874	-2.978100	3.874500	-11.537000	21.596197	0.000939	20.852999
105.029725	-3.005500	3.872400	-11.637000	21.604125	0.000940	20.830587
106.029906	-3.003000	3.871900	-11.627000	21.621936	0.000940	20.840824
107.031649	-3.003900	3.870800	-11.626000	21.602780	0.000939	20.831137
108.031869	-2.999000	3.872400	-11.613000	21.610844	0.000940	20.835888
109.030263	-3.018100	3.869900	-11.679000	21.624120	0.000940	20.836845
110.032414	-2.997100	3.869600	-11.596000	21.632792	0.000941	20.849791
111.031921	-2.984700	3.870400	-11.551000	21.626260	0.000941	20.843729
112.033269	-3.002000	3.869400	-11.614000	21.640331	0.000940	20.850697
113.036030	-3.026500	3.870800	-11.714000	21.637320	0.000942	20.820183
114.036035	-3.009100	3.870600	-11.646000	21.648911	0.000942	20.843162
115.034236	-2.993000	3.869300	-11.580000	21.636693	0.000941	20.817660
116.038438	-3.013800	3.868600	-11.658000	21.630991	0.000942	20.832816
117.038405	-3.022100	3.869100	-11.691000	21.652135	0.000943	20.842595
118.036098	-3.014500	3.867800	-11.658000	21.677297	0.000942	20.835060
119.038447	-3.006700	3.868300	-11.630000	21.674082	0.000941	20.831843
120.038604	-2.999800	3.868600	-11.604000	21.664749	0.000942	20.836253
121.036607	-2.997900	3.867100	-11.592000	21.690445	0.000941	20.834942
122.040983	-2.977200	3.869300	-11.518000	21.683694	0.000940	20.831979
123.042981	-3.016200	3.867400	-11.663000	21.681866	0.000942	20.838684
124.039171	-3.007600	3.867400	-11.631000	21.695005	0.000943	20.829074
125.042818	-2.996700	3.868900	-11.594000	21.716528	0.000941	20.828804
126.039921	-3.019400	3.868500	-11.678000	21.715082	0.000941	20.815976
127.039798	-3.016200	3.868000	-11.664000	21.728373	0.000942	20.839709
128.043677	-3.005400	3.867300	-11.621000	21.734211	0.000944	20.829905
129.043683	-2.994300	3.866700	-11.577000	21.759549	0.000943	20.835349
130.042251	-2.997100	3.866800	-11.587000	21.753686	0.000944	20.818576
131.044763	-3.007900	3.867300	-11.631000	21.756986	0.000944	20.821879
132.041664	-3.005900	3.867400	-11.622000	21.792654	0.000946	20.821067
133.041857	-3.012600	3.865700	-11.644000	21.765049	0.000944	20.830423
134.045859	-3.016500	3.866100	-11.661000	21.768187	0.000943	20.834986
135.043859	-3.006300	3.865300	-11.618000	21.740929	0.000944	20.834731
136.044697	-3.025700	3.864300	-11.691000	21.767071	0.000942	20.824386
137.048906	-2.969800	3.866200	-11.481000	21.798170	0.000943	20.805251
138.047180	-2.992600	3.864500	-11.564000	21.779617	0.000943	20.816080
139.046911	-3.002400	3.864300	-11.602000	21.773096	0.000944	20.817140
140.047979	-3.002300	3.864200	-11.601000	21.804016	0.000945	20.840500
141.046654	-3.011300	3.865000	-11.636000	21.815252	0.000945	20.810969
142.051697	-3.012700	3.865100	-11.642000	21.812223	0.000945	20.823109
143.048035	-3.016400	3.864200	-11.655000	21.841358	0.000946	20.821451
144.047828	-3.004000	3.862700	-11.602000	21.835250	0.000944	20.818183
145.048434	-2.979200	3.864200	-11.511000	21.846019	0.000946	20.831332
146.051646	-2.990000	3.862900	-11.549000	21.842095	0.000945	20.808913
147.049829	-2.999100	3.863600	-11.586000	21.857229	0.000947	20.827853
148.051206	-2.984200	3.865300	-11.534000	21.869867	0.000946	20.809209
149.055092	-2.998300	3.863000	-11.581000	21.892089	0.000945	20.822917
150.052249	-2.993500	3.862000	-11.560000	21.876635	0.000946	20.835423
151.052626	-2.997300	3.862800	-11.577000	21.884882	0.000947	20.820919
152.051675	-3.009900	3.862300	-11.623000	21.882269	0.000946	20.812139
153.060894	-2.987400	3.864300	-11.544000	21.895914	0.000947	20.817736
154.052895	-3.013800	3.860800	-11.635000	21.890932	0.000947	20.824129
155.053895	-3.004600	3.862100	-11.603000	21.900660	0.000948	20.818220
156.055963	-3.005900	3.861800	-11.608000	21.915243	0.000949	20.820489
157.054156	-2.993700	3.862000	-11.561000	21.916849	0.000950	20.799337
158.054548	-3.002800	3.861600	-11.593000	21.913940	0.000947	20.812072
159.056549	-3.019800	3.859600	-11.654000	21.918855	0.000949	20.811776
160.054915	-2.989500	3.861000	-11.541000	21.904923	0.000949	20.829125
161.053915	-2.988800	3.861100	-11.539000	21.902927	0.000947	20.817170
162.058007	-3.001700	3.859500	-11.584000	21.919506	0.000949	20.810058
163.054557	-2.999400	3.859700	-11.576000	21.897742	0.000948	20.805816
164.054551	-2.996800	3.860400	-11.569000	21.909584	0.000949	20.805816
165.056552	-3.026000	3.858200	-11.674000	21.917916	0.000952	20.798983
166.055630	-2.976100	3.861100	-11.491000	21.923896	0.000949	20.812081
167.055678	-3.023300	3.858600	-11.664000	21.964548	0.000950	20.789236
168.058918	-2.982200	3.860600	-11.511000	21.956209	0.000951	20.806019
169.056154	-3.000000	3.860100	-11.580000	21.962729	0.000949	20.783623
170.055375	-2.994200	3.859300	-11.555000	21.948350	0.000950	20.810481
171.060373	-3.002900	3.857700	-11.584000	21.955395	0.000950	20.813740
172.056367	-2.980800	3.859100	-11.502000	21.983418	0.000950	20.800540
173.056851	-2.995300	3.856900	-11.551000	21.970654	0.000952	20.802462
174.059225	-3.002300	3.858200	-11.582000	21.993441	0.000952	20.802987
175.057226	-2.997300	3.859700	-11.567000	21.950083	0.000952	20.790879
176.058224	-2.997900	3.858200	-11.565000	21.974317	0.000952	20.805180
177.060441	-3.001900	3.857600	-11.578000	21.979053	0.000951	20.804231
178.058442	-2.988000	3.858700	-11.529000	21.991960	0.000952	20.812410
179.059813	-2.978400	3.857400	-11.487000	21.992704	0.000953	20.819318
180.062050	-3.011200	3.857800	-11.616000	22.012903	0.000954	20.795442
181.062050	-3.004400	3.856600	-11.586000	22.013570	0.000954	20.812706
182.060105	-2.991700	3.858100	-11.541000	22.020634	0.000953	20.789431
183.068111	-3.039300	3.854800	-11.714000	22.007362	0.000954	20.796534
184.063697	-3.011800	3.855100	-11.609000	22.035130	0.000955	20.798726
185.060697	-3.014300	3.854900	-11.618000	22.025548	0.000955	20.810946
186.071230	-3.020200	3.854800	-11.641000	22.027510	0.000954	20.777348
187.065982	-2.976600	3.857100	-11.480000	22.037431	0.000955	20.808617
188.065168	-3.029300	3.854400	-11.673000	22.056249	0.000957	20.792842
189.067687	-2.992800	3.854700	-11.534000	22.056977	0.000956	20.797364
190.066900	-2.992500	3.857200	-11.541000	22.060064	0.000956	20.788126
191.073069	-2.983600	3.855500	-11.502000	22.084549	0.000957	20.794621
192.068292	-2.994200	3.855500	-11.543000	22.080920	0.000958	20.806160
193.067511	-2.996000	3.855100	-11.548000	22.072598	0.000957	20.803045
194.065899	-3.013900	3.853200	-11.611000	22.082772	0.000958	20.794265
195.072004	-2.988000	3.855300	-11.519000	22.077156	0.000957	20.796703
196.070006	-2.998200	3.855200	-11.557000	22.066787	0.000959	20.796279
197.066970	-3.004200	3.854500	-11.578000	22.076310	0.000958	20.787795
198.069777	-2.970800	3.854900	-11.451000	22.105344	0.000958	20.784146
199.070326	-3.009800	3.852100	-11.593000	22.109953	0.000960	20.776906
200.072379	-3.010300	3.854500	-11.602000	22.093580	0.000961	20.789438
201.071933	-2.989500	3.853500	-11.518000	22.125007	0.000960	20.794822
202.070139	-3.022100	3.852200	-11.641000	22.121886	0.000960	20.784111
203.069105	-2.992800	3.852300	-11.528000	22.145067	0.000959	20.777447
204.073503	-3.009900	3.850800	-11.588000	22.145042	0.000960	20.781689
205.070819	-2.996900	3.853300	-11.547000	22.144263	0.000962	20.765737
206.070817	-3.014700	3.851000	-11.608000	22.124744	0.000962	20.776066
207.073993	-2.993100	3.852500	-11.530000	22.141717	0.000962	20.759868
208.071993	-2.988900	3.852900	-11.514000	22.125437	0.000961	20.766803
209.073045	-2.996000	3.850600	-11.536000	22.124617	0.000961	20.784000
210.075046	-2.993100	3.851300	-11.527000	22.147003	0.000964	20.754729
211.073043	-3.003600	3.849800	-11.562000	22.153144	0.000964	20.791223
212.075045	-3.005100	3.851000	-11.571000	22.144178	0.000965	20.766599
213.072976	-3.014200	3.849900	-11.602000	22.124871	0.000965	20.779039
214.074034	-3.002900	3.850100	-11.559000	22.138056	0.000966	20.793187
215.073234	-2.999100	3.850100	-11.546000	22.176957	0.000965	20.784719
216.075674	-3.012800	3.850100	-11.599000	22.168239	0.000966	20.769352
217.075026	-2.987600	3.849700	-11.501000	22.172822	0.000965	20.763983
218.076824	-2.997300	3.850700	-11.540000	22.173229	0.000967	20.792840
219.076737	-3.002800	3.848500	-11.554000	22.176239	0.000966	20.766930
220.075737	-3.019900	3.849900	-11.625000	22.193736	0.000969	20.776388
221.075841	-3.007800	3.850000	-11.579000	22.212847	0.000969	20.777505
222.076059	-3.014800	3.848900	-11.603000	22.202108	0.000968	20.782399
223.076063	-2.989400	3.848700	-11.504000	22.228256	0.000967	20.765431
224.076472	-2.988300	3.849100	-11.501000	22.237625	0.000968	20.776709
225.076751	-3.011100	3.846900	-11.583000	22.236907	0.000969	20.766981
226.076753	-2.988000	3.848100	-11.497000	22.216315	0.000969	20.767700
227.076818	-2.980600	3.849600	-11.473000	22.229219	0.000972	20.761654
228.076422	-2.984400	3.848000	-11.482000	22.232686	0.000971	20.754220
229.076469	-2.998300	3.847500	-11.535000	22.214961	0.000969	20.757336
230.076469	-3.005400	3.846100	-11.557000	22.242901	0.000972	20.769190
231.077688	-3.007800	3.846200	-11.568000	22.237311	0.000972	20.767860
232.079059	-2.998600	3.847200	-11.535000	22.279931	0.000972	20.761222
233.078562	-3.003000	3.847900	-11.553000	22.271922	0.000974	20.748461
234.078955	-3.001700	3.847000	-11.545000	22.236339	0.000973	20.764041
235.079014	-3.013600	3.846900	-11.592000	22.233497	0.000974	20.763093
236.079230	-3.003600	3.845500	-11.550000	22.224001	0.000974	20.755481
237.078382	-2.994700	3.846800	-11.519000	22.248591	0.000973	20.747859
238.078383	-3.025100	3.843900	-11.627000	22.244819	0.000974	20.741237
239.078597	-2.997700	3.846000	-11.529000	22.283920	0.000976	20.745775
240.078650	-2.989500	3.844800	-11.491000	22.269122	0.000974	20.756089
241.078648	-2.985400	3.845700	-11.480000	22.298355	0.000976	20.749798
242.079217	-2.990600	3.844200	-11.494000	22.324145	0.000977	20.753336
243.079223	-2.996400	3.844900	-11.521000	22.303681	0.000976	20.748967
244.080347	-3.002700	3.844400	-11.543000	22.335856	0.000978	20.746097
245.080667	-2.998800	3.844600	-11.527000	22.317954	0.000978	20.743818
246.081076	-2.992500	3.845800	-11.508000	22.301619	0.000977	20.752592
247.081598	-3.003300	3.843800	-11.543000	22.303799	0.000978	20.760939
248.080980	-3.002000	3.843200	-11.536000	22.309422	0.000982	20.753767
249.081739	-3.006400	3.844100	-11.556000	22.308779	0.000980	20.757391
250.081801	-3.002600	3.843200	-11.539000	22.330046	0.000982	20.757824
251.082316	-3.019700	3.842000	-11.601000	22.337918	0.000980	20.779931
252.083612	-3.001800	3.843400	-11.536000	22.329074	0.000980	20.758747
253.084611	-3.000600	3.842400	-11.528000	22.332608	0.000982	20.765131
254.083610	-2.974600	3.843900	-11.433000	22.340108	0.000982	20.755097
255.093655	-2.998100	3.840500	-11.513000	22.347507	0.000982	20.756815
256.083657	-2.998500	3.842500	-11.521000	22.371106	0.000984	20.740143
257.083869	-2.982300	3.843100	-11.459000	22.380051	0.000983	20.760007
258.083923	-3.005100	3.841400	-11.541000	22.364435	0.000985	20.766655
259.083921	-2.998600	3.842300	-11.519000	22.402830	0.000985	20.754842
260.083397	-2.978900	3.842600	-11.445000	22.402881	0.000985	20.750626
261.083443	-2.983600	3.842300	-11.463000	22.381125	0.000985	20.742116
262.084142	-2.966600	3.843500	-11.402000	22.392464	0.000986	20.748255
263.084452	-2.997000	3.840500	-11.508000	22.406923	0.000986	20.772218
264.085452	-3.000400	3.840400	-11.521000	22.435948	0.000986	20.754817
265.085981	-3.004700	3.839100	-11.535000	22.418760	0.000988	20.760838
266.087193	-3.013500	3.839800	-11.570000	22.440937	0.000988	20.755071
267.085294	-2.987700	3.841500	-11.477000	22.491505	0.000988	20.755453
268.086293	-3.001600	3.840000	-11.526000	22.476025	0.000989	20.754648
269.086782	-2.986100	3.840200	-11.466000	22.486695	0.000989	20.750635
270.085831	-2.964200	3.841000	-11.383000	22.505776	0.000988	20.752675
271.095024	-2.997000	3.839300	-11.505000	22.506258	0.000990	20.745097
272.086021	-2.987800	3.839100	-11.469000	22.493838	0.000992	20.758737
