LabVIEW Measurement	
Writer_Version	2
Reader_Version	2
Separator	Tab
Decimal_Separator	.
Multi_Headings	No
X_Columns	One
Time_Pref	Absolute
Operator	admin
Description	Clolumns are: time, Current, Voltage, Power, Battery Temp, and Chamber Temp
Date	2024/08/16
Time	13:06:06.104549407958984375
***End_of_Header***	
	
Channels	6						
Samples	1	1	1	1	1	1	
Date	2024/09/12	2024/09/12	2024/09/12	2024/09/12	2024/09/12	2024/09/12	
Time	11:44:31.8854193687438964844	11:44:31.8902935981750488281	11:44:31.8963160514831542969	11:44:31.8696961402893066406	11:44:31.8696961402893066406	11:44:31.8696961402893066406	
X_Dimension	Time	Time	Time	Time	Time	Time	
X0	0.0000000000000000E+0	0.0000000000000000E+0	0.0000000000000000E+0	0.0000000000000000E+0	0.0000000000000000E+0	0.0000000000000000E+0	
Delta_X	1.000000	1.000000	1.000000	1.000000	1.000000	1.000000	
***End_of_Header***							
X_Value	Untitled	Untitled 1	Untitled 2	Untitled 3	Untitled 4	Untitled 5	Comment
0.000000	-0.004364	4.095300	-0.017880	21.030264	0.000921	20.832091
1.002463	-3.000300	3.919000	-11.757000	21.045557	0.000920	20.845016
2.001326	-2.990800	3.910900	-11.696000	21.045059	0.000922	20.862534
3.008125	-2.981400	3.907000	-11.647000	21.020008	0.000919	20.862134
4.003629	-3.021400	3.902400	-11.790000	21.035153	0.000916	20.843618
5.005920	-2.994900	3.898700	-11.675000	21.044831	0.000917	20.834807
6.005733	-2.994800	3.896400	-11.668000	21.046358	0.000916	20.842497
7.012746	-3.001200	3.892500	-11.680000	21.039814	0.000915	20.851125
8.005429	-3.017200	3.888900	-11.732000	21.061798	0.000914	20.841346
9.003746	-2.978900	3.889100	-11.585000	21.056954	0.000914	20.843613
10.006442	-3.007100	3.886500	-11.685000	21.069476	0.000914	20.864672
11.007555	-2.990700	3.885800	-11.620000	21.062667	0.000913	20.841267
12.015795	-2.998800	3.884100	-11.647000	21.063916	0.000913	20.855792
13.005471	-2.980600	3.883100	-11.573000	21.055501	0.000910	20.839789
14.009001	-3.003400	3.881100	-11.656000	21.061091	0.000911	20.834949
15.006283	-3.032700	3.878800	-11.763000	21.073312	0.000911	20.848121
16.014987	-3.028900	3.877900	-11.745000	21.083914	0.000910	20.826958
17.012611	-3.003400	3.877200	-11.644000	21.082387	0.000910	20.815948
18.007926	-2.995200	3.877000	-11.610000	21.066843	0.000909	20.850185
19.007236	-3.015200	3.875600	-11.684000	21.087424	0.000907	20.844692
20.008425	-3.000900	3.874900	-11.626000	21.087996	0.000908	20.837679
21.009247	-2.996500	3.874100	-11.608000	21.094277	0.000908	20.829736
22.011481	-2.988400	3.872100	-11.569000	21.106626	0.000909	20.845408
23.013472	-3.019100	3.872100	-11.689000	21.100236	0.000908	20.834749
24.011721	-2.993700	3.871300	-11.588000	21.090221	0.000907	20.839904
25.019938	-2.992100	3.871300	-11.581000	21.123107	0.000908	20.835341
26.015141	-2.981100	3.869300	-11.533000	21.122524	0.000906	20.828119
27.012584	-2.986000	3.869100	-11.553000	21.137963	0.000907	20.835029
28.016737	-3.007300	3.868500	-11.633000	21.140155	0.000906	20.828213
29.015890	-2.995000	3.868900	-11.586000	21.149082	0.000907	20.851840
30.014030	-2.988800	3.867300	-11.556000	21.142016	0.000906	20.828651
31.011432	-2.987000	3.866400	-11.548000	21.166837	0.000906	20.818393
32.014686	-3.008600	3.866100	-11.631000	21.144380	0.000905	20.836706
33.013062	-2.997000	3.865300	-11.583000	21.173758	0.000904	20.840014
34.013725	-2.988700	3.865900	-11.552000	21.160332	0.000906	20.839860
35.011507	-2.997400	3.864100	-11.582000	21.178437	0.000904	20.841376
36.016374	-3.005800	3.863400	-11.610000	21.200162	0.000903	20.823279
37.010830	-2.987000	3.863100	-11.536000	21.212061	0.000904	20.851777
38.014217	-2.996000	3.864100	-11.576000	21.203918	0.000904	20.823718
39.013891	-2.999300	3.861900	-11.581000	21.188616	0.000904	20.831644
40.011197	-3.019000	3.861100	-11.655000	21.233343	0.000903	20.850308
41.015244	-3.002800	3.861000	-11.593000	21.221667	0.000904	20.837679
42.011693	-2.996400	3.860800	-11.567000	21.224209	0.000903	20.847334
43.017018	-3.001000	3.859800	-11.583000	21.228963	0.000902	20.850667
44.018094	-2.987900	3.860500	-11.533000	21.237267	0.000902	20.826259
45.017131	-3.012100	3.859200	-11.622000	21.244672	0.000902	20.817546
46.014988	-2.999900	3.859300	-11.576000	21.246237	0.000900	20.850404
47.015661	-3.018100	3.858900	-11.646000	21.269960	0.000899	20.842843
48.014354	-3.011700	3.858500	-11.619000	21.253242	0.000901	20.829912
49.024165	-3.008900	3.857500	-11.606000	21.281527	0.000900	20.839716
50.014699	-3.002000	3.858400	-11.580000	21.284543	0.000902	20.849371
51.017728	-2.998100	3.856700	-11.562000	21.271776	0.000900	20.824272
52.022354	-2.979400	3.856700	-11.490000	21.288685	0.000899	20.847825
53.020821	-2.999000	3.856200	-11.564000	21.282647	0.000901	20.844156
54.019599	-2.981600	3.857200	-11.499000	21.311029	0.000901	20.826558
55.024186	-2.994500	3.856600	-11.548000	21.299709	0.000900	20.826613
56.022793	-2.989400	3.856300	-11.526000	21.319511	0.000900	20.836465
57.015750	-3.001900	3.854300	-11.570000	21.316243	0.000900	20.837937
58.020351	-2.988000	3.854600	-11.516000	21.313972	0.000900	20.827131
59.019665	-2.992500	3.854100	-11.531000	21.331907	0.000900	20.828005
60.026762	-3.021300	3.853500	-11.642000	21.348920	0.000898	20.815628
61.020165	-3.020600	3.853000	-11.638000	21.361716	0.000898	20.839809
62.021299	-2.999100	3.853400	-11.556000	21.359894	0.000901	20.837038
63.018620	-3.004200	3.852500	-11.571000	21.367033	0.000898	20.836594
64.017460	-2.986500	3.853400	-11.506000	21.365759	0.000898	20.809716
65.020392	-3.024300	3.850300	-11.642000	21.381256	0.000898	20.811944
66.016547	-3.001800	3.851900	-11.562000	21.386617	0.000899	20.825842
67.026370	-3.010300	3.850900	-11.591000	21.385274	0.000900	20.815965
68.018017	-2.997300	3.852200	-11.544000	21.380535	0.000897	20.833508
69.019913	-3.015900	3.849500	-11.608000	21.396777	0.000899	20.822732
70.021118	-2.991000	3.851000	-11.517000	21.389994	0.000899	20.817842
71.018782	-3.026800	3.849000	-11.649000	21.413018	0.000899	20.812903
72.024346	-3.014100	3.850400	-11.604000	21.416188	0.000899	20.802798
73.018464	-2.992000	3.850500	-11.520000	21.446172	0.000898	20.818100
74.023201	-3.005800	3.848000	-11.565000	21.440806	0.000899	20.800403
75.018046	-3.000300	3.849900	-11.550000	21.448941	0.000900	20.815655
76.021623	-2.981100	3.850100	-11.475000	21.463957	0.000899	20.818352
77.021880	-2.996800	3.849400	-11.535000	21.466149	0.000899	20.799208
78.022716	-3.002400	3.846700	-11.548000	21.476002	0.000899	20.812859
79.022774	-3.003900	3.847800	-11.555000	21.484980	0.000897	20.800033
80.022174	-2.985900	3.846800	-11.485000	21.505036	0.000900	20.809669
81.024754	-2.992200	3.847900	-11.513000	21.513714	0.000900	20.799386
82.021390	-3.000000	3.848000	-11.542000	21.529652	0.000900	20.802532
83.022433	-2.994500	3.846800	-11.518000	21.528157	0.000900	20.812890
84.031249	-3.001500	3.846700	-11.546000	21.533216	0.000898	20.811788
85.019754	-2.994900	3.848000	-11.523000	21.547782	0.000901	20.816406
86.019363	-2.995900	3.847000	-11.524000	21.549757	0.000898	20.806528
87.024580	-2.996100	3.847300	-11.526000	21.567209	0.000901	20.809768
88.027361	-2.984300	3.845100	-11.474000	21.580531	0.000900	20.800340
89.032934	-3.010000	3.845200	-11.572000	21.566607	0.000901	20.814381
90.023184	-2.980100	3.846100	-11.461000	21.609454	0.000899	20.816480
91.019361	-3.011000	3.843600	-11.571000	21.595160	0.000900	20.808814
92.030186	-2.999100	3.843900	-11.527000	21.606704	0.000899	20.803771
93.021899	-3.006600	3.844400	-11.557000	21.605811	0.000901	20.810464
94.022677	-2.989800	3.844200	-11.492000	21.618821	0.000901	20.792663
95.021269	-2.988200	3.845100	-11.489000	21.629897	0.000899	20.805643
96.025621	-2.989900	3.843600	-11.491000	21.655082	0.000901	20.812355
97.023561	-3.006500	3.842100	-11.551000	21.643459	0.000901	20.802620
98.026409	-2.995400	3.843300	-11.511000	21.650038	0.000900	20.807781
99.021323	-3.005100	3.841900	-11.545000	21.681284	0.000900	20.795903
100.023266	-2.988600	3.842800	-11.483000	21.681708	0.000902	20.792534
101.022429	-2.998300	3.841900	-11.518000	21.690508	0.000902	20.793280
102.025908	-3.004200	3.841900	-11.541000	21.684378	0.000902	20.789042
103.029014	-2.998500	3.841100	-11.515000	21.710708	0.000902	20.818237
104.022312	-2.984800	3.843600	-11.471000	21.706592	0.000900	20.817911
105.029355	-2.980800	3.842500	-11.452000	21.685197	0.000900	20.809302
106.023361	-2.986700	3.841100	-11.471000	21.692205	0.000899	20.779332
107.026541	-2.995500	3.841400	-11.505000	21.696218	0.000900	20.808951
108.026025	-3.020800	3.839800	-11.598000	21.690162	0.000901	20.796727
109.030828	-3.016500	3.838900	-11.577000	21.704702	0.000904	20.797528
110.028131	-2.994000	3.841300	-11.500000	21.737294	0.000901	20.795058
111.027711	-2.991400	3.840600	-11.487000	21.735552	0.000900	20.768185
112.029456	-3.000000	3.839700	-11.517000	21.740689	0.000902	20.804621
113.028749	-2.994100	3.839400	-11.494000	21.721117	0.000901	20.808740
114.035249	-3.018700	3.837800	-11.583000	21.744134	0.000903	20.812336
115.025370	-3.013400	3.838700	-11.567000	21.753289	0.000902	20.783092
116.032756	-3.008700	3.838600	-11.548000	21.754883	0.000903	20.792274
117.026433	-3.008000	3.838100	-11.544000	21.766480	0.000904	20.791079
118.032726	-3.012700	3.839300	-11.565000	21.767606	0.000904	20.796472
119.030878	-2.990700	3.839000	-11.481000	21.752815	0.000904	20.783566
120.033449	-3.001500	3.837500	-11.517000	21.784404	0.000903	20.799534
121.031358	-2.998200	3.836900	-11.502000	21.781044	0.000906	20.778153
122.031726	-2.996600	3.836500	-11.496000	21.801223	0.000905	20.793134
123.031476	-2.994400	3.836700	-11.487000	21.795982	0.000905	20.788362
124.028919	-2.998700	3.836500	-11.503000	21.790524	0.000907	20.787167
125.030930	-2.989200	3.836000	-11.464000	21.799446	0.000904	20.804157
126.029138	-3.009400	3.834900	-11.539000	21.834428	0.000906	20.785117
127.034713	-3.009000	3.836600	-11.542000	21.834058	0.000907	20.787592
128.029133	-2.987600	3.836600	-11.460000	21.853476	0.000907	20.764827
129.034489	-2.994700	3.834100	-11.480000	21.837098	0.000909	20.784945
130.032490	-3.000200	3.835400	-11.505000	21.859615	0.000908	20.780929
131.039513	-2.985300	3.835100	-11.448000	21.853832	0.000910	20.781779
132.034490	-3.002100	3.834900	-11.511000	21.852953	0.000908	20.793701
133.034189	-3.032600	3.834200	-11.625000	21.878257	0.000909	20.764501
134.031194	-2.994300	3.835900	-11.484000	21.887928	0.000910	20.759957
135.032188	-3.014400	3.833800	-11.553000	21.900545	0.000910	20.765948
136.036190	-2.998700	3.834600	-11.498000	21.895107	0.000910	20.767143
137.031190	-3.004600	3.833000	-11.514000	21.920509	0.000911	20.758904
138.031188	-3.002500	3.833700	-11.510000	21.905099	0.000912	20.777619
139.030190	-2.997300	3.833700	-11.490000	21.916167	0.000911	20.778740
140.030216	-3.023800	3.833000	-11.589000	21.903401	0.000913	20.785877
141.033348	-2.990500	3.834000	-11.464000	21.904749	0.000912	20.783432
142.030140	-3.008500	3.832100	-11.528000	21.919107	0.000913	20.768881
143.033118	-2.970100	3.832100	-11.381000	21.924633	0.000914	20.773938
144.031860	-2.986300	3.831900	-11.442000	21.942811	0.000913	20.772219
146.307650	-3.010600	3.831300	-11.533000	21.951726	0.000913	20.773557
147.311403	-2.997500	3.832400	-11.487000	21.927193	0.000915	20.768914
148.310402	-2.985500	3.832800	-11.442000	21.939435	0.000915	20.764098
149.309149	-2.990100	3.831900	-11.457000	21.956537	0.000916	20.776950
150.310148	-3.006000	3.831900	-11.518000	21.960247	0.000915	20.768336
151.310458	-3.003100	3.831600	-11.506000	21.970687	0.000918	20.785899
152.311456	-2.999500	3.830400	-11.488000	21.973430	0.000917	20.789594
153.318398	-2.995300	3.830300	-11.471000	21.968510	0.000920	20.782298
154.313849	-3.018300	3.829000	-11.556000	21.985316	0.000916	20.773990
155.317622	-2.992400	3.829500	-11.458000	21.996500	0.000917	20.789928
156.314219	-3.002500	3.829500	-11.496000	21.998617	0.000921	20.791573
157.316500	-3.003500	3.829100	-11.499000	22.026834	0.000919	20.784258
158.316932	-2.995100	3.829500	-11.469000	22.021993	0.000922	20.780834
159.319866	-3.013700	3.828000	-11.535000	22.025703	0.000921	20.770323
160.329122	-3.005700	3.828600	-11.506000	22.047668	0.000921	20.773821
161.319174	-3.002400	3.827800	-11.491000	22.038037	0.000922	20.767972
162.319481	-2.990100	3.827100	-11.441000	22.019165	0.000921	20.785590
163.316808	-3.004200	3.827300	-11.497000	22.059740	0.000922	20.760775
164.321340	-3.003200	3.828300	-11.496000	22.058220	0.000925	20.771108
165.316855	-3.003100	3.825700	-11.488000	22.063825	0.000922	20.786676
166.323414	-2.997300	3.826600	-11.468000	22.083638	0.000923	20.761466
167.321368	-3.009600	3.827200	-11.516000	22.081891	0.000926	20.779632
168.320670	-3.004300	3.825800	-11.492000	22.104570	0.000925	20.772939
169.320086	-3.010800	3.825100	-11.515000	22.125157	0.000923	20.764152
170.321445	-3.009600	3.826800	-11.516000	22.120638	0.000925	20.790447
171.329212	-2.990900	3.825700	-11.441000	22.134249	0.000927	20.753813
172.320387	-3.001000	3.825200	-11.479000	22.132902	0.000926	20.768587
173.321422	-2.990400	3.824900	-11.437000	22.103183	0.000927	20.771550
174.319862	-2.993400	3.826500	-11.453000	22.106972	0.000929	20.780085
175.325305	-2.988900	3.825800	-11.433000	22.104820	0.000926	20.749481
176.325527	-2.992000	3.824700	-11.443000	22.129226	0.000928	20.768699
177.326058	-3.007900	3.825200	-11.505000	22.150705	0.000925	20.766970
178.321583	-2.995000	3.824500	-11.454000	22.161746	0.000926	20.766644
179.323888	-2.985100	3.826000	-11.419000	22.193194	0.000928	20.773000
180.323954	-3.013800	3.824800	-11.526000	22.204407	0.000927	20.779011
181.322504	-3.015300	3.823400	-11.528000	22.201234	0.000929	20.772516
182.321751	-3.024600	3.822900	-11.561000	22.202901	0.000929	20.769917
183.325449	-2.993400	3.824000	-11.446000	22.209107	0.000931	20.784666
184.324398	-2.970200	3.823700	-11.356000	22.210868	0.000931	20.773152
185.326479	-3.002800	3.822800	-11.478000	22.205658	0.000931	20.778368
186.330389	-2.996100	3.822600	-11.452000	22.219436	0.000933	20.774144
187.329396	-2.978300	3.823000	-11.384000	22.204977	0.000934	20.766306
188.327985	-2.995000	3.822700	-11.448000	22.210354	0.000931	20.785914
189.327657	-2.993700	3.822400	-11.442000	22.211449	0.000933	20.783217
190.327065	-2.984800	3.822600	-11.408000	22.227495	0.000933	20.791697
191.328723	-2.995100	3.821400	-11.444000	22.225847	0.000935	20.777245
192.326168	-3.006700	3.821100	-11.488000	22.241341	0.000933	20.773792
193.328776	-3.011500	3.820500	-11.504000	22.241366	0.000936	20.780455
194.328042	-2.963200	3.821300	-11.322000	22.246619	0.000936	20.774809
195.330214	-3.006100	3.820200	-11.482000	22.251744	0.000934	20.780888
196.331629	-3.020200	3.819800	-11.536000	22.281331	0.000936	20.768313
197.338944	-3.006400	3.819800	-11.483000	22.276738	0.000938	20.770827
198.334668	-3.014000	3.819700	-11.511000	22.275016	0.000937	20.787121
199.330905	-3.018800	3.819100	-11.527000	22.271849	0.000937	20.780631
200.327933	-3.008500	3.819100	-11.489000	22.283431	0.000936	20.769468
201.341895	-3.014000	3.818600	-11.508000	22.267804	0.000937	20.787960
202.332196	-2.998400	3.818800	-11.450000	22.296310	0.000939	20.793270
203.341493	-2.997800	3.818800	-11.446000	22.288131	0.000938	20.792193
204.332583	-3.013600	3.819500	-11.509000	22.290356	0.000938	20.794895
205.335001	-3.007800	3.819000	-11.484000	22.304907	0.000940	20.776274
206.336848	-2.996000	3.818300	-11.439000	22.310984	0.000940	20.788049
207.336558	-2.991800	3.819500	-11.427000	22.339144	0.000940	20.787797
208.337033	-3.042200	3.817800	-11.612000	22.334778	0.000941	20.768252
209.335576	-2.996300	3.816900	-11.436000	22.351554	0.000940	20.783628
210.337654	-3.003200	3.816300	-11.460000	22.370519	0.000943	20.785075
211.334245	-3.007800	3.818000	-11.482000	22.358528	0.000942	20.785396
212.339112	-2.993300	3.816500	-11.423000	22.360047	0.000942	20.791185
213.334337	-2.996000	3.817000	-11.435000	22.378795	0.000942	20.752111
214.336054	-2.988800	3.817500	-11.408000	22.379397	0.000943	20.782586
215.337729	-2.977500	3.817700	-11.366000	22.387934	0.000944	20.795403
216.337654	-3.014900	3.815100	-11.501000	22.373557	0.000946	20.771522
217.344262	-2.990600	3.815400	-11.409000	22.385819	0.000945	20.784749
218.338545	-2.980100	3.815900	-11.370000	22.409444	0.000946	20.795605
219.339421	-2.984800	3.815500	-11.387000	22.428255	0.000946	20.779830
220.340824	-3.007300	3.813000	-11.465000	22.430923	0.000946	20.769699
221.346829	-3.016700	3.813700	-11.503000	22.456091	0.000948	20.766454
222.337191	-2.994000	3.813800	-11.417000	22.440037	0.000948	20.792103
223.341121	-3.013100	3.813500	-11.488000	22.469945	0.000949	20.799295
224.344677	-3.006200	3.814700	-11.467000	22.470837	0.000948	20.799240
225.342749	-2.979800	3.815200	-11.367000	22.482397	0.000950	20.774307
226.342367	-3.005900	3.813800	-11.462000	22.490545	0.000951	20.796217
227.339193	-3.032900	3.811500	-11.559000	22.518276	0.000952	20.791747
228.341700	-3.011500	3.813000	-11.481000	22.516579	0.000952	20.794789
229.338210	-3.015600	3.812100	-11.495000	22.514434	0.000951	20.789796
230.343004	-3.020300	3.811900	-11.511000	22.529929	0.000953	20.776391
231.340626	-3.003700	3.813700	-11.454000	22.515553	0.000952	20.805616
232.341557	-3.018400	3.812200	-11.506000	22.514078	0.000952	20.791337
233.337067	-3.018900	3.811100	-11.503000	22.532537	0.000953	20.787064
234.339476	-3.008400	3.810800	-11.463000	22.519374	0.000955	20.810865
235.338560	-3.001300	3.811500	-11.439000	22.550572	0.000955	20.779996
236.339126	-3.002100	3.810900	-11.440000	22.541172	0.000956	20.785280
237.339512	-2.985100	3.812400	-11.379000	22.531230	0.000957	20.806617
238.337380	-2.996500	3.811600	-11.420000	22.543411	0.000956	20.795109
239.342453	-3.010400	3.811500	-11.473000	22.571540	0.000957	20.796255
240.341105	-3.011700	3.810500	-11.474000	22.558684	0.000959	20.787646
241.344480	-3.002500	3.810000	-11.438000	22.579282	0.000957	20.791681
242.341383	-3.009500	3.810700	-11.468000	22.609679	0.000959	20.785616
243.344752	-2.996700	3.811000	-11.420000	22.632925	0.000961	20.791829
244.346132	-3.005700	3.810000	-11.452000	22.632170	0.000962	20.795340
245.346632	-2.991300	3.809500	-11.394000	22.653946	0.000959	20.813832
246.346896	-3.000300	3.810500	-11.429000	22.667792	0.000960	20.803993
247.344881	-3.001900	3.808300	-11.431000	22.651973	0.000963	20.801899
248.347395	-3.013600	3.808600	-11.476000	22.689266	0.000962	20.807011
249.346371	-3.020700	3.806400	-11.498000	22.679941	0.000960	20.797671
250.352844	-3.004300	3.808800	-11.441000	22.674389	0.000963	20.807757
251.348993	-2.997900	3.808700	-11.416000	22.687811	0.000962	20.802235
252.346636	-2.997300	3.806900	-11.409000	22.675479	0.000963	20.785140
253.347595	-3.005800	3.806500	-11.439000	22.698225	0.000963	20.817407
254.347830	-3.003400	3.806800	-11.432000	22.670015	0.000963	20.825186
255.351611	-2.985100	3.807400	-11.364000	22.701731	0.000963	20.806694
256.349389	-3.004700	3.805200	-11.433000	22.693432	0.000964	20.811184
257.345624	-3.020200	3.806900	-11.497000	22.692160	0.000961	20.812280
258.345746	-3.028800	3.804200	-11.521000	22.702973	0.000965	20.806516
259.346512	-3.021800	3.804500	-11.495000	22.694270	0.000963	20.824825
260.345022	-3.013200	3.805100	-11.464000	22.722124	0.000966	20.810527
261.351820	-2.998100	3.805300	-11.408000	22.737967	0.000967	20.833034
262.345028	-3.004500	3.804500	-11.430000	22.744465	0.000970	20.822000
263.345552	-2.967500	3.805000	-11.291000	22.745693	0.000967	20.812799
264.346977	-3.003300	3.804600	-11.425000	22.747478	0.000967	20.825966
265.347683	-3.021400	3.804400	-11.494000	22.732030	0.000968	20.822819
266.352686	-3.024500	3.804200	-11.505000	22.723184	0.000969	20.821071
267.347949	-3.004700	3.804900	-11.432000	22.729989	0.000970	20.833102
268.354043	-3.010600	3.804100	-11.451000	22.765711	0.000970	20.829057
269.347226	-2.997700	3.802200	-11.397000	22.778886	0.000972	20.826608
270.347861	-2.998700	3.803600	-11.405000	22.775572	0.000971	20.839883
271.351536	-3.001300	3.803900	-11.413000	22.797316	0.000973	20.811879
272.352758	-2.997800	3.803000	-11.400000	22.819981	0.000973	20.798074
273.349837	-2.998800	3.802900	-11.403000	22.820252	0.000974	20.817312
