LabVIEW Measurement	
Writer_Version	2
Reader_Version	2
Separator	Tab
Decimal_Separator	.
Multi_Headings	No
X_Columns	One
Time_Pref	Absolute
Operator	admin
Description	Clolumns are: time, Current, Voltage, Power, Battery Temp, and Chamber Temp
Date	2024/08/16
Time	13:06:06.104549407958984375
***End_of_Header***	
	
Channels	6						
Samples	1	1	1	1	1	1	
Date	2024/08/28	2024/08/28	2024/08/28	2024/08/28	2024/08/28	2024/08/28	
Time	07:04:49.9920253753662109375	07:04:49.9984278678894042969	07:04:50.0095582008361816406	07:04:49.9748334884643554688	07:04:49.9748334884643554688	07:04:49.9748334884643554688	
X_Dimension	Time	Time	Time	Time	Time	Time	
X0	0.0000000000000000E+0	0.0000000000000000E+0	0.0000000000000000E+0	0.0000000000000000E+0	0.0000000000000000E+0	0.0000000000000000E+0	
Delta_X	1.000000	1.000000	1.000000	1.000000	1.000000	1.000000	
***End_of_Header***							
X_Value	Untitled	Untitled 1	Untitled 2	Untitled 3	Untitled 4	Untitled 5	Comment
0.000000	0.030008	4.104900	0.123210	21.072972	0.000957	20.906097
0.998960	-2.991600	3.944200	-11.797000	21.082901	0.000956	20.897064
2.001785	-3.001100	3.937200	-11.816000	21.053738	0.000956	20.916255
2.998328	-2.996800	3.931500	-11.781000	21.065084	0.000955	20.885408
3.999991	-2.974800	3.928600	-11.684000	21.066708	0.000951	20.897462
5.001291	-2.989800	3.924900	-11.734000	21.086391	0.000953	20.914303
5.998792	-2.990500	3.922100	-11.728000	21.084318	0.000952	20.891370
7.002140	-2.982300	3.919600	-11.687000	21.063314	0.000951	20.884112
8.004314	-2.996300	3.916700	-11.734000	21.080874	0.000950	20.898829
9.003800	-2.993600	3.916700	-11.725000	21.066683	0.000950	20.894593
10.002811	-2.994200	3.912200	-11.713000	21.090904	0.000952	20.880414
11.010133	-2.957300	3.913000	-11.570000	21.080778	0.000950	20.901578
12.003619	-3.007300	3.910400	-11.759000	21.097566	0.000948	20.909835
13.005570	-2.992600	3.908000	-11.694000	21.099987	0.000948	20.894714
14.004667	-2.995300	3.906700	-11.701000	21.087732	0.000946	20.907585
15.004667	-3.000900	3.906400	-11.720000	21.102629	0.000948	20.898779
16.016725	-3.001700	3.905500	-11.722000	21.112760	0.000946	20.906067
17.009347	-3.011900	3.904400	-11.757000	21.111111	0.000945	20.917693
18.007591	-2.979100	3.903100	-11.626000	21.122533	0.000946	20.907308
19.006488	-3.023200	3.901100	-11.792000	21.125201	0.000943	20.877736
20.009840	-3.028200	3.899600	-11.808000	21.142966	0.000943	20.898824
21.006275	-3.008700	3.899500	-11.730000	21.133834	0.000943	20.908654
22.010479	-3.010900	3.901200	-11.746000	21.122508	0.000941	20.926721
23.014045	-2.999900	3.897900	-11.691000	21.170403	0.000942	20.919629
24.009423	-3.005600	3.898300	-11.716000	21.156904	0.000940	20.923195
25.006841	-3.005100	3.896500	-11.709000	21.140914	0.000940	20.915736
26.007543	-3.025900	3.894800	-11.784000	21.169405	0.000941	20.921001
27.014902	-3.009600	3.895900	-11.723000	21.162466	0.000941	20.910268
28.008981	-3.038700	3.893600	-11.830000	21.167579	0.000940	20.910167
29.007946	-2.991100	3.894500	-11.647000	21.193977	0.000938	20.901013
30.014402	-3.029500	3.893200	-11.792000	21.171043	0.000937	20.924537
31.007853	-2.991000	3.893700	-11.644000	21.193871	0.000937	20.925086
32.008330	-3.009800	3.892900	-11.715000	21.221559	0.000938	20.925283
33.013092	-2.986600	3.892200	-11.623000	21.202271	0.000937	20.925429
34.012930	-2.991600	3.891800	-11.641000	21.190881	0.000936	20.930629
35.017836	-2.982400	3.891300	-11.605000	21.219758	0.000938	20.938654
36.017566	-2.999700	3.888200	-11.661000	21.205695	0.000935	20.914157
37.014863	-2.988500	3.889600	-11.623000	21.195066	0.000934	20.931023
38.014388	-2.985000	3.890300	-11.611000	21.226868	0.000934	20.918741
39.014971	-2.986800	3.890100	-11.617000	21.214741	0.000933	20.926050
40.012300	-2.968800	3.889000	-11.545000	21.227019	0.000933	20.904670
41.012172	-2.995200	3.888600	-11.647000	21.238264	0.000935	20.915443
42.011338	-2.999400	3.886900	-11.657000	21.245126	0.000933	20.919463
43.014357	-3.010700	3.886000	-11.698000	21.260621	0.000932	20.921213
44.013995	-3.011700	3.886100	-11.703000	21.270372	0.000934	20.927174
45.027240	-3.008100	3.885900	-11.688000	21.279131	0.000931	20.929772
46.018252	-2.978500	3.886400	-11.575000	21.284294	0.000932	20.932566
47.015679	-2.996300	3.885200	-11.641000	21.294337	0.000929	20.939294
48.025635	-2.977100	3.887200	-11.570000	21.282620	0.000932	20.920461
49.012709	-3.014900	3.884900	-11.711000	21.287929	0.000929	20.933358
50.019197	-2.990100	3.885300	-11.617000	21.299132	0.000930	20.948357
51.022237	-3.019900	3.884400	-11.729000	21.296984	0.000930	20.945261
52.013832	-3.006300	3.883600	-11.674000	21.312120	0.000929	20.960875
53.017209	-2.982000	3.882600	-11.577000	21.314888	0.000928	20.949422
54.018322	-2.981300	3.883700	-11.578000	21.337612	0.000929	20.935173
55.016026	-3.009100	3.881400	-11.677000	21.330206	0.000930	20.957632
56.017522	-2.994400	3.881400	-11.620000	21.335989	0.000926	20.941135
57.015945	-3.001100	3.882900	-11.650000	21.335510	0.000927	20.945397
58.018464	-2.998800	3.882300	-11.641000	21.359609	0.000928	20.972349
59.020218	-3.000700	3.881500	-11.647000	21.362599	0.000928	20.951636
60.014587	-3.022400	3.880000	-11.725000	21.359756	0.000928	20.950687
61.020018	-3.004200	3.880100	-11.656000	21.366592	0.000929	20.929081
62.015901	-3.005300	3.879300	-11.657000	21.354769	0.000928	20.949966
63.016541	-2.985200	3.880500	-11.583000	21.390656	0.000929	20.939879
64.020009	-2.993600	3.880100	-11.614000	21.395773	0.000930	20.962540
65.017195	-3.013800	3.878300	-11.687000	21.400386	0.000927	20.942502
66.020499	-3.006600	3.879700	-11.663000	21.419665	0.000926	20.955625
67.020460	-3.000100	3.878500	-11.635000	21.418571	0.000928	20.957849
68.018726	-3.010700	3.879800	-11.680000	21.390636	0.000928	20.956452
69.016691	-3.014100	3.877800	-11.687000	21.409794	0.000929	20.944802
70.043067	-3.001300	3.877600	-11.637000	21.425105	0.000929	20.961067
71.016416	-2.988000	3.878000	-11.586000	21.436705	0.000929	20.947071
72.028696	-2.993400	3.878300	-11.608000	21.434462	0.000927	20.937715
73.024923	-3.017100	3.877500	-11.698000	21.458156	0.000927	20.951464
74.019069	-3.005900	3.877100	-11.653000	21.467634	0.000926	20.960946
75.021120	-3.016200	3.876800	-11.690000	21.474470	0.000929	20.936969
76.019153	-3.018400	3.876200	-11.699000	21.452444	0.000927	20.975143
77.029759	-3.011400	3.875300	-11.670000	21.480877	0.000927	20.962343
78.017037	-2.995800	3.876600	-11.612000	21.469554	0.000927	20.956230
79.022856	-2.993500	3.874800	-11.598000	21.491080	0.000927	20.944106
80.021879	-2.997200	3.873800	-11.610000	21.476864	0.000926	20.944106
81.024072	-2.989400	3.874800	-11.582000	21.496711	0.000928	20.928405
82.027524	-2.969700	3.875500	-11.508000	21.482475	0.000928	20.952090
83.020269	-2.995500	3.873900	-11.603000	21.487884	0.000926	20.957027
84.021179	-3.014900	3.873800	-11.677000	21.514426	0.000927	20.952291
85.023523	-3.001600	3.873000	-11.624000	21.520959	0.000928	20.933701
86.024376	-3.010800	3.873600	-11.662000	21.513649	0.000927	20.927810
87.021352	-3.008300	3.872900	-11.649000	21.530008	0.000928	20.936117
88.021316	-3.005500	3.873900	-11.642000	21.535467	0.000926	20.940631
89.021234	-3.003600	3.873300	-11.632000	21.552304	0.000926	20.909592
90.021496	-2.967600	3.873800	-11.495000	21.546068	0.000927	20.930851
91.024267	-2.996500	3.872900	-11.602000	21.552702	0.000927	20.943178
92.023090	-3.002300	3.872100	-11.624000	21.580240	0.000928	20.920950
93.026392	-2.992000	3.873700	-11.589000	21.580109	0.000927	20.948317
94.022752	-2.989500	3.871400	-11.573000	21.576968	0.000927	20.934745
95.021873	-3.009800	3.871200	-11.650000	21.582281	0.000926	20.913985
96.026778	-3.012700	3.870600	-11.659000	21.596491	0.000928	20.929625
97.023471	-2.982100	3.873000	-11.549000	21.593351	0.000929	20.939758
98.027462	-2.996700	3.872000	-11.602000	21.582256	0.000929	20.912063
99.023796	-2.996800	3.871500	-11.601000	21.617717	0.000925	20.916729
100.022786	-2.996300	3.871400	-11.599000	21.619512	0.000928	20.934644
101.027158	-3.006100	3.869600	-11.630000	21.620858	0.000925	20.924612
102.024022	-3.011100	3.869400	-11.650000	21.646816	0.000926	20.941579
103.024749	-3.006300	3.869800	-11.633000	21.644624	0.000925	20.919473
104.028756	-3.004900	3.869400	-11.625000	21.637542	0.000926	20.919024
105.026892	-2.998800	3.870300	-11.605000	21.642401	0.000928	20.923886
106.026767	-2.981300	3.871900	-11.542000	21.643475	0.000929	20.908841
107.025548	-2.986000	3.869600	-11.554000	21.650652	0.000929	20.901325
108.027211	-2.991200	3.868900	-11.572000	21.653445	0.000928	20.931144
109.027692	-2.972000	3.869800	-11.500000	21.673042	0.000928	20.918514
110.029905	-3.016000	3.867800	-11.664000	21.666691	0.000927	20.908841
111.029165	-2.997700	3.867400	-11.591000	21.677432	0.000928	20.917692
112.036499	-3.008800	3.869300	-11.639000	21.671026	0.000927	20.922186
113.029284	-2.998300	3.867700	-11.595000	21.681973	0.000929	20.929348
114.029614	-2.992000	3.867400	-11.569000	21.675884	0.000929	20.918514
115.030856	-2.999600	3.868300	-11.602000	21.695587	0.000930	20.904094
116.039324	-3.017500	3.865800	-11.664000	21.701146	0.000929	20.902072
117.038059	-2.996700	3.867800	-11.589000	21.712996	0.000928	20.902551
118.034273	-3.005000	3.865400	-11.615000	21.724740	0.000927	20.890597
119.033515	-3.006800	3.866000	-11.624000	21.723464	0.000929	20.893114
120.030502	-3.015400	3.866700	-11.659000	21.725561	0.000930	20.920814
121.031570	-2.999800	3.866600	-11.599000	21.732295	0.000930	20.918545
122.034763	-3.009400	3.866800	-11.636000	21.742687	0.000930	20.918988
123.033508	-3.014400	3.865100	-11.650000	21.746230	0.000927	20.902147
124.031896	-2.998000	3.866100	-11.589000	21.755308	0.000931	20.897008
125.033781	-2.990900	3.866300	-11.561000	21.739996	0.000929	20.903494
126.033789	-3.014900	3.865300	-11.652000	21.742138	0.000931	20.908482
127.032764	-2.984300	3.864700	-11.532000	21.753135	0.000930	20.912376
128.036981	-2.986900	3.863900	-11.540000	21.747319	0.000932	20.906556
129.032059	-3.001600	3.865000	-11.600000	21.755096	0.000930	20.890158
130.040529	-2.987700	3.864900	-11.545000	21.754642	0.000932	20.896816
131.032193	-2.993500	3.863700	-11.564000	21.768603	0.000931	20.894668
132.033788	-2.999300	3.862600	-11.585000	21.774762	0.000932	20.888030
133.039293	-2.999700	3.864000	-11.590000	21.789075	0.000930	20.883390
134.031672	-2.994500	3.863500	-11.568000	21.790617	0.000932	20.900579
135.032952	-3.008600	3.863500	-11.622000	21.800359	0.000930	20.916492
136.033007	-2.988600	3.864000	-11.547000	21.779217	0.000933	20.911927
137.032268	-3.016800	3.862500	-11.650000	21.799961	0.000931	20.902818
138.036220	-3.000100	3.862800	-11.587000	21.820926	0.000933	20.894879
139.036851	-2.975600	3.863700	-11.496000	21.805464	0.000931	20.897421
140.033891	-2.993700	3.860900	-11.557000	21.809627	0.000934	20.878356
141.034577	-2.991400	3.862800	-11.553000	21.806956	0.000933	20.882320
142.033840	-2.976700	3.863200	-11.498000	21.819248	0.000933	20.895096
143.033879	-2.991600	3.861800	-11.551000	21.825654	0.000933	20.890602
144.035355	-2.990200	3.860600	-11.543000	21.864000	0.000935	20.900059
145.035311	-3.001000	3.860500	-11.584000	21.840833	0.000935	20.881140
146.032948	-2.975300	3.861000	-11.487000	21.856642	0.000937	20.902178
147.033603	-3.000600	3.861200	-11.584000	21.869528	0.000934	20.905592
148.033454	-2.989400	3.860800	-11.541000	21.882943	0.000934	20.905270
149.037035	-2.991100	3.859600	-11.543000	21.871967	0.000934	20.891440
150.038473	-3.004100	3.860200	-11.596000	21.880096	0.000935	20.905264
151.036885	-3.022800	3.860200	-11.667000	21.874533	0.000936	20.879783
152.039311	-2.999400	3.859500	-11.576000	21.891586	0.000935	20.874094
153.036510	-3.007500	3.859300	-11.606000	21.886995	0.000938	20.900791
154.037757	-2.982600	3.859500	-11.508000	21.902552	0.000937	20.878906
155.038292	-3.017600	3.858700	-11.642000	21.915684	0.000937	20.878301
156.037055	-3.015200	3.858400	-11.631000	21.938295	0.000935	20.888131
157.037963	-3.013500	3.857800	-11.624000	21.949487	0.000935	20.889851
158.035908	-3.014900	3.858900	-11.634000	21.949089	0.000938	20.873332
159.042243	-2.976400	3.859800	-11.487000	21.933876	0.000937	20.873751
160.043004	-3.002500	3.858900	-11.585000	21.927013	0.000937	20.899596
161.040258	-2.998900	3.858900	-11.571000	21.938306	0.000936	20.878659
162.041089	-3.020300	3.857000	-11.649000	21.934289	0.000937	20.879854
163.040332	-3.011800	3.858000	-11.619000	21.958069	0.000937	20.897966
164.040501	-3.008500	3.857300	-11.604000	21.955877	0.000936	20.875860
165.042902	-3.010000	3.858600	-11.613000	21.967160	0.000938	20.897583
166.047222	-2.993200	3.857500	-11.545000	21.988495	0.000937	20.876268
167.042199	-2.998500	3.858000	-11.567000	21.999656	0.000938	20.868950
168.043858	-2.979700	3.857700	-11.493000	22.005663	0.000938	20.865954
169.043909	-2.998100	3.856500	-11.562000	21.984494	0.000938	20.910667
170.044775	-2.990900	3.855600	-11.530000	22.032354	0.000938	20.867543
171.045353	-3.002000	3.855700	-11.574000	22.023702	0.000938	20.873580
172.044166	-2.978000	3.856600	-11.484000	22.025168	0.000939	20.864617
173.046264	-3.004200	3.855900	-11.583000	21.994472	0.000940	20.870398
174.045671	-2.990300	3.856800	-11.531000	22.023516	0.000941	20.882876
175.046176	-3.016800	3.855700	-11.631000	21.999551	0.000941	20.856991
176.048174	-2.999800	3.854800	-11.563000	22.006898	0.000940	20.870509
177.046668	-3.006900	3.854000	-11.587000	22.016668	0.000940	20.885979
178.049719	-2.982000	3.855800	-11.497000	22.050247	0.000942	20.847524
179.045002	-3.000000	3.853900	-11.561000	22.062753	0.000941	20.865259
180.047598	-3.006100	3.854400	-11.586000	22.041737	0.000943	20.847539
181.050917	-2.990000	3.853600	-11.521000	22.059009	0.000942	20.870045
182.047993	-3.009700	3.852900	-11.595000	22.084056	0.000945	20.878524
183.045823	-2.994600	3.854500	-11.542000	22.085921	0.000943	20.868538
184.051584	-2.997700	3.854100	-11.552000	22.069863	0.000942	20.880910
185.048345	-3.003400	3.852800	-11.571000	22.103133	0.000944	20.858743
186.046879	-3.001200	3.853100	-11.563000	22.109214	0.000945	20.855822
187.053426	-2.992600	3.852500	-11.529000	22.104599	0.000944	20.861159
188.050307	-3.004100	3.851900	-11.570000	22.093056	0.000946	20.868568
189.049808	-3.002400	3.851600	-11.563000	22.131464	0.000948	20.851545
190.050334	-3.029200	3.852500	-11.668000	22.124602	0.000946	20.854158
191.054015	-2.984000	3.852000	-11.493000	22.131827	0.000947	20.846693
192.056984	-2.987500	3.852800	-11.509000	22.119710	0.000948	20.861114
193.056333	-2.991000	3.852100	-11.521000	22.118037	0.000945	20.869396
194.055197	-3.001200	3.851700	-11.558000	22.114370	0.000946	20.850078
195.056397	-3.001300	3.851400	-11.558000	22.120224	0.000947	20.848353
196.055194	-3.016900	3.851800	-11.620000	22.163372	0.000947	20.857886
197.059619	-3.000800	3.850400	-11.553000	22.145769	0.000949	20.864918
198.056048	-2.999100	3.850200	-11.546000	22.142005	0.000950	20.856883
199.056476	-3.003800	3.851000	-11.565000	22.160969	0.000949	20.852636
200.055917	-2.998000	3.851700	-11.545000	22.159448	0.000949	20.871500
201.056267	-3.030200	3.850400	-11.666000	22.175570	0.000952	20.858719
202.055940	-2.993300	3.850000	-11.524000	22.178487	0.000951	20.850735
203.061665	-3.020500	3.848400	-11.623000	22.202015	0.000951	20.842997
204.057883	-3.017300	3.849100	-11.613000	22.202212	0.000950	20.847936
205.056505	-3.009400	3.848900	-11.582000	22.219281	0.000952	20.842266
206.058934	-3.007900	3.848100	-11.574000	22.196348	0.000954	20.849651
207.058379	-2.994700	3.849400	-11.527000	22.205467	0.000952	20.852617
208.058861	-3.006500	3.848500	-11.569000	22.209734	0.000953	20.850725
209.057262	-3.020200	3.846800	-11.618000	22.201305	0.000953	20.842287
210.059360	-3.008400	3.849100	-11.579000	22.202444	0.000954	20.854332
211.056040	-3.011300	3.849400	-11.590000	22.221659	0.000954	20.851286
212.058695	-3.007300	3.846900	-11.568000	22.223332	0.000954	20.834469
213.059343	-3.011700	3.849000	-11.591000	22.213931	0.000954	20.827428
214.062402	-3.020800	3.848100	-11.624000	22.214153	0.000957	20.872218
215.057207	-3.017400	3.847600	-11.609000	22.222007	0.000956	20.845944
216.056972	-3.017400	3.848100	-11.610000	22.263353	0.000954	20.844668
217.056303	-3.004300	3.847300	-11.557000	22.251685	0.000958	20.847210
218.060512	-3.003600	3.846600	-11.553000	22.276355	0.000960	20.850575
219.059752	-3.012500	3.846300	-11.586000	22.286547	0.000958	20.841814
220.058084	-3.029500	3.844500	-11.646000	22.283509	0.000959	20.834979
221.057790	-3.007600	3.844800	-11.562000	22.264542	0.000958	20.839695
222.059906	-3.004800	3.846900	-11.558000	22.264265	0.000959	20.849849
223.058147	-3.001600	3.844300	-11.538000	22.268476	0.000962	20.821824
224.062301	-2.974400	3.845300	-11.436000	22.257484	0.000958	20.848275
225.059745	-2.991000	3.845900	-11.502000	22.244200	0.000959	20.825965
226.059106	-3.011300	3.845900	-11.580000	22.243525	0.000962	20.824816
227.059062	-3.021200	3.845500	-11.617000	22.258623	0.000961	20.849415
228.058982	-2.988100	3.845900	-11.490000	22.235892	0.000962	20.845622
229.063064	-3.024900	3.843100	-11.625000	22.267344	0.000962	20.841078
230.063538	-2.985000	3.844600	-11.475000	22.252764	0.000963	20.822213
231.061226	-2.997900	3.844000	-11.522000	22.251716	0.000965	20.831121
232.060395	-3.003200	3.844900	-11.545000	22.277510	0.000964	20.836559
233.062108	-2.988900	3.844300	-11.489000	22.315690	0.000964	20.841124
234.064510	-2.988100	3.843900	-11.485000	22.311504	0.000967	20.841673
235.063375	-3.004600	3.843400	-11.546000	22.345345	0.000965	20.835257
236.066282	-2.993700	3.843200	-11.504000	22.347667	0.000966	20.826677
237.064460	-3.003300	3.842300	-11.538000	22.339386	0.000965	20.833084
238.063815	-2.979600	3.843500	-11.450000	22.350554	0.000967	20.842844
239.069707	-3.034600	3.842500	-11.658000	22.357929	0.000969	20.825573
240.065660	-3.003600	3.841700	-11.538000	22.356655	0.000968	20.829987
241.066847	-3.010300	3.841300	-11.563000	22.370009	0.000968	20.829609
242.066303	-2.992000	3.842100	-11.495000	22.360171	0.000969	20.814068
243.064871	-3.001600	3.841800	-11.531000	22.382450	0.000969	20.825946
244.066041	-3.013000	3.841800	-11.573000	22.403204	0.000970	20.823969
245.068634	-3.002800	3.840700	-11.532000	22.394631	0.000970	20.825816
246.066913	-3.010200	3.840400	-11.559000	22.422244	0.000969	20.826441
247.069197	-2.998200	3.841100	-11.515000	22.432212	0.000970	20.821251
248.066194	-3.012500	3.840700	-11.569000	22.441012	0.000970	20.825795
249.068608	-3.011200	3.839700	-11.561000	22.425458	0.000969	20.814961
250.069376	-3.022900	3.838900	-11.604000	22.426405	0.000971	20.823021
251.068325	-3.001200	3.841500	-11.527000	22.418079	0.000972	20.826063
252.073492	-2.992600	3.841300	-11.494000	22.411404	0.000972	20.821750
253.070679	-3.006400	3.838400	-11.538000	22.422290	0.000972	20.801831
254.072727	-2.988000	3.840000	-11.473000	22.452587	0.000972	20.817947
255.070928	-2.994300	3.840300	-11.499000	22.464101	0.000972	20.803874
256.072122	-2.990200	3.839100	-11.479000	22.475540	0.000974	20.837140
257.069493	-2.976500	3.838800	-11.425000	22.484853	0.000973	20.809958
258.070345	-3.002800	3.838500	-11.526000	22.509599	0.000974	20.824308
259.070904	-2.994900	3.839200	-11.498000	22.502094	0.000974	20.811103
260.070443	-3.015800	3.838500	-11.575000	22.509891	0.000975	20.812273
261.073282	-3.027100	3.835900	-11.611000	22.474080	0.000975	20.804858
262.069166	-2.976300	3.839000	-11.425000	22.499198	0.000975	20.802513
263.074861	-3.005300	3.837700	-11.531000	22.486713	0.000978	20.798543
264.070002	-2.997600	3.837500	-11.503000	22.473501	0.000978	20.829883
265.070235	-2.995800	3.836300	-11.491000	22.470434	0.000978	20.799785
266.073434	-2.999000	3.836900	-11.505000	22.471683	0.000979	20.827588
267.070300	-3.000700	3.838300	-11.516000	22.496197	0.000979	20.818947
268.072701	-2.985100	3.836900	-11.453000	22.504196	0.000977	20.791870
269.074247	-2.988000	3.836300	-11.461000	22.509882	0.000979	20.798513
270.072420	-2.977200	3.836300	-11.420000	22.520615	0.000981	20.807366
271.073884	-2.998200	3.835800	-11.499000	22.525798	0.000979	20.801651
272.076210	-3.006000	3.835000	-11.527000	22.507530	0.000981	20.810857
