LabVIEW Measurement	
Writer_Version	2
Reader_Version	2
Separator	Tab
Decimal_Separator	.
Multi_Headings	No
X_Columns	One
Time_Pref	Absolute
Operator	admin
Description	Clolumns are: time, Current, Voltage, Power, Battery Temp, and Chamber Temp
Date	2024/08/16
Time	13:06:06.104549407958984375
***End_of_Header***	
	
Channels	6						
Samples	1	1	1	1	1	1	
Date	2024/08/30	2024/08/30	2024/08/30	2024/08/30	2024/08/30	2024/08/30	
Time	21:07:49.0508470535278320313	21:07:49.0562047958374023438	21:07:49.0622510910034179688	21:07:49.02169036865234375	21:07:49.02169036865234375	21:07:49.02169036865234375	
X_Dimension	Time	Time	Time	Time	Time	Time	
X0	0.0000000000000000E+0	0.0000000000000000E+0	0.0000000000000000E+0	0.0000000000000000E+0	0.0000000000000000E+0	0.0000000000000000E+0	
Delta_X	1.000000	1.000000	1.000000	1.000000	1.000000	1.000000	
***End_of_Header***							
X_Value	Untitled	Untitled 1	Untitled 2	Untitled 3	Untitled 4	Untitled 5	Comment
0.000000	0.023455	4.106600	0.096332	20.975106	0.000946	20.708168
1.001938	-3.010900	3.941900	-11.868000	20.984760	0.000944	20.713556
1.991999	-2.996000	3.935100	-11.789000	20.977648	0.000944	20.700279
2.997208	-3.001700	3.930100	-11.797000	20.989820	0.000944	20.691588
3.993172	-2.985300	3.926600	-11.721000	20.989549	0.000945	20.731624
4.990398	-2.998100	3.922600	-11.760000	20.981940	0.000943	20.713581
6.001448	-3.004400	3.919600	-11.774000	20.999554	0.000941	20.724560
7.002380	-2.992300	3.917100	-11.720000	20.991070	0.000942	20.706591
7.997926	-2.976400	3.915400	-11.652000	21.017348	0.000939	20.704424
9.001022	-3.012100	3.911400	-11.780000	21.002381	0.000939	20.710792
10.011004	-2.988600	3.910700	-11.686000	21.003624	0.000937	20.704922
11.031568	-3.011300	3.908500	-11.769000	21.010964	0.000935	20.710367
11.998939	-3.005100	3.908000	-11.743000	21.025456	0.000937	20.724863
12.998673	-3.000000	3.906200	-11.717000	21.010743	0.000936	20.719155
13.998568	-3.007400	3.904200	-11.740000	21.018647	0.000936	20.711888
15.003578	-3.003200	3.902800	-11.719000	21.024319	0.000937	20.730364
16.001578	-3.002600	3.901500	-11.714000	21.032901	0.000932	20.712394
16.999743	-2.995300	3.900600	-11.682000	21.027866	0.000932	20.727273
18.004812	-3.009500	3.901200	-11.739000	21.046754	0.000931	20.715819
18.997181	-3.025100	3.898600	-11.792000	21.052312	0.000932	20.721379
20.003664	-3.007100	3.898100	-11.721000	21.059202	0.000930	20.723529
20.998542	-3.015100	3.897100	-11.750000	21.057461	0.000930	20.730322
22.002592	-2.995900	3.897400	-11.675000	21.054771	0.000930	20.724313
23.003631	-2.999700	3.896500	-11.687000	21.063582	0.000930	20.718426
24.004453	-3.015000	3.894400	-11.740000	21.045217	0.000930	20.722816
25.003133	-2.979100	3.895000	-11.603000	21.074460	0.000929	20.740214
26.003160	-3.011300	3.893600	-11.723000	21.093643	0.000929	20.716726
27.004806	-3.006300	3.893600	-11.704000	21.078147	0.000929	20.736315
28.010583	-3.013900	3.891700	-11.729000	21.108573	0.000928	20.725497
29.001483	-3.001500	3.892600	-11.682000	21.100483	0.000926	20.710765
30.004620	-2.992900	3.892800	-11.649000	21.127780	0.000928	20.716733
31.012239	-3.007300	3.890400	-11.699000	21.115554	0.000926	20.705925
32.004062	-2.994600	3.891000	-11.651000	21.123121	0.000927	20.732462
33.012320	-3.004800	3.888800	-11.684000	21.099788	0.000925	20.716234
34.003363	-3.018000	3.888900	-11.736000	21.124838	0.000924	20.721377
35.009797	-3.025400	3.886700	-11.757000	21.129578	0.000926	20.733705
36.021286	-2.988700	3.887400	-11.617000	21.147696	0.000925	20.738553
37.007635	-3.024800	3.885200	-11.749000	21.172288	0.000925	20.729013
38.007518	-3.002800	3.888000	-11.674000	21.161000	0.000925	20.738111
39.011353	-2.984400	3.886900	-11.599000	21.152763	0.000924	20.742199
40.006898	-3.004900	3.885500	-11.675000	21.162766	0.000923	20.732765
41.008342	-2.998400	3.885500	-11.650000	21.177509	0.000923	20.724753
42.005699	-3.025500	3.883500	-11.748000	21.192579	0.000924	20.722758
43.008094	-2.978100	3.886300	-11.572000	21.167604	0.000923	20.747088
44.010418	-2.996700	3.884600	-11.639000	21.209790	0.000924	20.751356
45.012852	-3.001200	3.884000	-11.655000	21.205949	0.000921	20.735185
46.010123	-2.993900	3.882000	-11.621000	21.225259	0.000922	20.726052
47.035867	-2.999300	3.882500	-11.644000	21.210860	0.000921	20.728244
48.019484	-2.983900	3.883900	-11.588000	21.236782	0.000922	20.723829
49.012847	-3.007800	3.881300	-11.672000	21.250657	0.000921	20.737710
50.011700	-3.003900	3.881000	-11.656000	21.247634	0.000922	20.747489
51.021482	-3.001300	3.882500	-11.650000	21.253894	0.000920	20.768925
52.022099	-2.987700	3.881500	-11.596000	21.247683	0.000922	20.734735
53.012099	-3.008400	3.880200	-11.672000	21.260505	0.000923	20.732389
54.016994	-2.992800	3.879500	-11.609000	21.239152	0.000920	20.737106
55.009930	-2.999700	3.879000	-11.635000	21.249481	0.000919	20.744120
56.013868	-3.010100	3.878200	-11.672000	21.278786	0.000919	20.764903
57.012157	-3.001300	3.878600	-11.640000	21.283672	0.000917	20.741816
58.012719	-3.003300	3.877000	-11.643000	21.305973	0.000920	20.730934
59.014033	-3.012200	3.878200	-11.681000	21.325004	0.000918	20.743336
60.017456	-2.989100	3.877200	-11.588000	21.315002	0.000918	20.736649
61.015990	-2.993100	3.879100	-11.609000	21.294369	0.000917	20.749673
62.032362	-2.992300	3.879400	-11.607000	21.317519	0.000918	20.751496
63.022532	-2.999800	3.875600	-11.625000	21.348023	0.000918	20.754513
64.015851	-3.001400	3.876600	-11.634000	21.336494	0.000919	20.751513
65.019307	-3.002500	3.875800	-11.636000	21.333233	0.000918	20.751095
66.015519	-3.026400	3.875500	-11.727000	21.372961	0.000919	20.756230
67.022137	-3.002800	3.877100	-11.642000	21.370363	0.000919	20.755053
68.017641	-3.006000	3.876700	-11.652000	21.354086	0.000919	20.763424
69.026560	-2.998000	3.874300	-11.615000	21.371898	0.000917	20.765598
70.026444	-3.004500	3.875400	-11.641000	21.352035	0.000918	20.760424
71.031334	-3.005100	3.875600	-11.646000	21.363287	0.000917	20.754611
72.014472	-2.997000	3.875900	-11.615000	21.379326	0.000917	20.748847
73.021067	-2.993900	3.874000	-11.597000	21.394246	0.000917	20.767094
74.018015	-3.013700	3.873900	-11.674000	21.405342	0.000916	20.748798
75.016586	-2.991800	3.873000	-11.585000	21.406869	0.000917	20.757913
76.019485	-3.031300	3.873200	-11.740000	21.424625	0.000916	20.761927
77.023088	-2.994100	3.874500	-11.600000	21.420809	0.000914	20.769964
78.023182	-3.014700	3.873600	-11.676000	21.438964	0.000917	20.753515
79.022723	-3.020400	3.871900	-11.693000	21.443998	0.000918	20.755707
80.020759	-3.003100	3.873300	-11.631000	21.469971	0.000914	20.739968
81.030502	-3.015100	3.872900	-11.675000	21.472855	0.000917	20.759451
82.017043	-2.990200	3.871800	-11.576000	21.451114	0.000917	20.772784
83.028429	-3.007000	3.870600	-11.638000	21.474137	0.000915	20.771165
84.022636	-3.002400	3.871600	-11.623000	21.506753	0.000916	20.768239
85.024139	-3.009800	3.871000	-11.648000	21.483215	0.000917	20.782619
86.022531	-2.972700	3.871100	-11.506000	21.485878	0.000915	20.771533
87.026415	-3.000600	3.870400	-11.611000	21.505290	0.000917	20.781000
88.021067	-3.014500	3.870300	-11.666000	21.489424	0.000915	20.759434
89.021109	-2.986000	3.870400	-11.555000	21.499751	0.000915	20.769767
90.036242	-3.013200	3.870200	-11.661000	21.510453	0.000915	20.756294
91.020055	-2.987600	3.870800	-11.563000	21.530478	0.000916	20.766374
92.035162	-2.991800	3.870200	-11.578000	21.526515	0.000916	20.794178
93.023846	-2.993500	3.868600	-11.579000	21.533223	0.000917	20.765802
94.025953	-3.005800	3.870000	-11.631000	21.535887	0.000917	20.775580
95.026875	-2.992200	3.870000	-11.579000	21.557586	0.000917	20.776430
96.028976	-3.015900	3.867100	-11.661000	21.554595	0.000917	20.783869
97.027749	-2.995800	3.868800	-11.589000	21.561629	0.000916	20.776683
98.037719	-2.989900	3.869500	-11.568000	21.573149	0.000915	20.781572
99.037424	-3.008400	3.868300	-11.636000	21.594390	0.000917	20.790974
100.031382	-2.998500	3.868200	-11.597000	21.591947	0.000917	20.785210
101.023726	-3.000900	3.866900	-11.602000	21.586848	0.000916	20.784375
102.032660	-3.011900	3.865500	-11.641000	21.615923	0.000916	20.780754
103.029722	-3.024700	3.866000	-11.691000	21.605597	0.000917	20.794129
104.026523	-3.022100	3.865500	-11.681000	21.617769	0.000918	20.805835
105.032100	-2.990100	3.867400	-11.562000	21.602958	0.000917	20.771573
106.038022	-2.994400	3.866300	-11.577000	21.619093	0.000916	20.794357
107.030079	-3.007800	3.865700	-11.626000	21.631738	0.000916	20.793262
108.026554	-2.994100	3.865100	-11.571000	21.639017	0.000917	20.784424
109.035548	-2.976000	3.865300	-11.502000	21.653877	0.000917	20.773217
110.041120	-2.993900	3.865700	-11.572000	21.658917	0.000918	20.786321
111.031355	-3.015700	3.863900	-11.652000	21.658492	0.000917	20.787793
112.030696	-3.016900	3.864700	-11.658000	21.654653	0.000920	20.783950
113.034238	-3.026700	3.866500	-11.701000	21.680319	0.000920	20.782609
114.027234	-3.057800	3.862800	-11.810000	21.671187	0.000919	20.796229
115.036088	-2.963100	3.866100	-11.454000	21.703780	0.000917	20.802295
116.031575	-3.013700	3.863700	-11.642000	21.703208	0.000916	20.789395
117.033682	-2.992400	3.866100	-11.567000	21.695726	0.000919	20.794234
118.038207	-3.024300	3.862300	-11.678000	21.719545	0.000918	20.795787
119.033243	-2.995100	3.864400	-11.573000	21.737973	0.000918	20.802850
120.046593	-2.986700	3.864500	-11.541000	21.720141	0.000919	20.805393
121.036169	-2.999100	3.865000	-11.590000	21.728269	0.000919	20.813053
122.037848	-2.985200	3.863500	-11.532000	21.738847	0.000922	20.789500
123.033366	-2.977700	3.862900	-11.501000	21.748771	0.000919	20.796114
124.029176	-3.033300	3.862700	-11.715000	21.778716	0.000920	20.790522
125.031663	-2.983200	3.863500	-11.525000	21.759643	0.000921	20.823590
126.033215	-2.993900	3.862700	-11.564000	21.757071	0.000920	20.809636
127.034431	-3.012900	3.861600	-11.633000	21.773252	0.000921	20.799278
128.033354	-2.971900	3.863900	-11.482000	21.775702	0.000919	20.810265
129.033683	-2.996000	3.861800	-11.569000	21.770989	0.000921	20.812660
130.029374	-3.017900	3.861400	-11.652000	21.771691	0.000922	20.810044
131.038849	-3.002700	3.860700	-11.592000	21.770694	0.000920	20.808572
132.032815	-2.987000	3.860400	-11.530000	21.795427	0.000923	20.811989
133.031480	-3.020100	3.859600	-11.655000	21.806152	0.000920	20.797593
134.032981	-3.005300	3.861400	-11.603000	21.804036	0.000923	20.803062
135.032739	-3.037200	3.857700	-11.716000	21.805580	0.000921	20.825944
136.032185	-3.009100	3.860300	-11.615000	21.795754	0.000921	20.800937
137.031796	-2.986900	3.859700	-11.528000	21.813258	0.000921	20.808973
138.032054	-2.983800	3.861300	-11.520000	21.807107	0.000922	20.809928
139.046030	-2.996100	3.859300	-11.560000	21.815487	0.000922	20.811678
140.032636	-3.027000	3.860000	-11.683000	21.814009	0.000922	20.817311
141.029647	-3.005300	3.858900	-11.595000	21.791171	0.000923	20.800143
142.039737	-3.012600	3.859300	-11.626000	21.812131	0.000923	20.809267
143.039028	-2.997900	3.858000	-11.565000	21.805327	0.000923	20.803406
144.031562	-2.997000	3.858900	-11.564000	21.809134	0.000923	20.813380
145.034210	-2.995300	3.859400	-11.559000	21.830852	0.000924	20.803349
146.036842	-2.982600	3.858900	-11.508000	21.834502	0.000925	20.783769
147.035450	-3.016500	3.857900	-11.637000	21.873985	0.000923	20.809538
148.036638	-3.031900	3.856200	-11.690000	21.854808	0.000925	20.786550
149.045640	-2.976000	3.859500	-11.485000	21.886031	0.000924	20.780818
150.033657	-3.014200	3.857900	-11.627000	21.874009	0.000925	20.805769
151.034311	-2.981700	3.858100	-11.502000	21.900210	0.000925	20.816348
152.052745	-3.004500	3.858100	-11.591000	21.917158	0.000924	20.784948
153.042331	-3.002600	3.857400	-11.581000	21.892796	0.000925	20.807029
154.035090	-3.027000	3.855600	-11.669000	21.911074	0.000923	20.798772
155.050929	-3.013400	3.855300	-11.616000	21.913214	0.000926	20.789060
156.046021	-2.973600	3.857600	-11.470000	21.916154	0.000926	20.792004
157.043920	-2.998900	3.856200	-11.563000	21.934979	0.000928	20.799467
158.040636	-2.995600	3.855000	-11.547000	21.924354	0.000927	20.775555
159.049985	-2.999900	3.854700	-11.562000	21.970905	0.000927	20.773315
160.047003	-2.991300	3.856200	-11.535000	21.971975	0.000927	20.764903
161.048049	-3.010400	3.855200	-11.604000	21.961203	0.000927	20.771190
162.034679	-3.000400	3.856900	-11.571000	21.971771	0.000928	20.791252
163.042845	-3.001800	3.855000	-11.571000	22.019800	0.000930	20.789070
164.048566	-3.007200	3.853600	-11.587000	21.998640	0.000929	20.762198
165.045068	-2.987400	3.854200	-11.513000	22.000036	0.000929	20.794890
166.041755	-3.001300	3.855300	-11.569000	21.993977	0.000930	20.781712
167.044314	-2.990800	3.853600	-11.525000	22.001008	0.000930	20.800604
168.045768	-3.031500	3.852600	-11.678000	22.012980	0.000929	20.792200
169.043182	-2.997600	3.853200	-11.549000	22.015463	0.000930	20.787100
170.050463	-2.995000	3.853600	-11.541000	22.029101	0.000931	20.778941
171.047361	-2.996800	3.853700	-11.548000	22.021319	0.000932	20.773995
172.047810	-2.990200	3.854200	-11.524000	22.029542	0.000931	20.772270
173.048591	-3.012300	3.852100	-11.602000	22.043931	0.000931	20.801373
174.048558	-2.988400	3.852700	-11.512000	22.001703	0.000933	20.761944
175.052892	-3.007000	3.851300	-11.580000	22.008604	0.000933	20.799199
176.048093	-2.972000	3.852600	-11.447000	22.029974	0.000934	20.761797
177.048620	-3.014200	3.851100	-11.607000	22.026659	0.000934	20.777444
178.044697	-2.997000	3.851100	-11.541000	22.040942	0.000934	20.786527
179.046876	-2.994400	3.851800	-11.533000	22.065041	0.000936	20.756124
180.046608	-2.998200	3.852500	-11.549000	22.079527	0.000935	20.766833
181.047557	-3.010600	3.851200	-11.594000	22.075510	0.000937	20.792684
182.054321	-2.980700	3.852100	-11.481000	22.086901	0.000937	20.769000
183.055325	-2.970000	3.853000	-11.441000	22.077208	0.000935	20.771150
184.047977	-2.986000	3.850700	-11.496000	22.069026	0.000938	20.791409
185.053388	-3.021100	3.849700	-11.629000	22.070307	0.000938	20.785579
186.054556	-2.996500	3.850000	-11.536000	22.097949	0.000936	20.773897
187.050143	-2.985600	3.849500	-11.492000	22.097174	0.000936	20.766482
188.049479	-2.983900	3.851400	-11.491000	22.131445	0.000939	20.758593
189.050411	-3.015600	3.849300	-11.606000	22.126709	0.000939	20.751481
190.051591	-3.004000	3.849400	-11.562000	22.127583	0.000937	20.763735
191.086023	-3.001000	3.849900	-11.553000	22.129625	0.000938	20.759141
192.048545	-2.994900	3.850900	-11.533000	22.135438	0.000940	20.761168
193.053239	-3.009000	3.848900	-11.580000	22.131723	0.000938	20.754129
194.045083	-2.990300	3.848600	-11.507000	22.117065	0.000939	20.747041
195.051426	-2.986900	3.849000	-11.495000	22.148046	0.000938	20.767153
196.054676	-3.007300	3.849300	-11.574000	22.118233	0.000942	20.762910
197.060830	-3.015500	3.847100	-11.599000	22.110908	0.000941	20.750360
198.048968	-2.984400	3.849000	-11.485000	22.128253	0.000940	20.763458
199.051311	-2.988200	3.847400	-11.495000	22.128849	0.000943	20.775909
200.050675	-2.970100	3.848200	-11.428000	22.135259	0.000944	20.744867
201.050860	-3.009000	3.847000	-11.575000	22.144640	0.000942	20.729602
202.065481	-3.012800	3.845800	-11.586000	22.129698	0.000943	20.744041
203.063135	-3.001300	3.847300	-11.546000	22.119924	0.000943	20.728091
204.060675	-2.998600	3.846400	-11.533000	22.143685	0.000945	20.760890
205.049036	-3.000800	3.846000	-11.540000	22.127453	0.000944	20.744638
206.054874	-3.008000	3.845100	-11.565000	22.151484	0.000945	20.738825
207.056453	-2.995200	3.847500	-11.523000	22.172616	0.000948	20.760458
208.066087	-2.991500	3.846300	-11.505000	22.176282	0.000946	20.754645
209.055492	-2.984200	3.846800	-11.479000	22.208004	0.000946	20.744680
210.060239	-2.992000	3.847100	-11.508000	22.210699	0.000946	20.741213
211.051550	-2.998000	3.846200	-11.531000	22.204314	0.000947	20.751417
212.064451	-2.979200	3.845600	-11.455000	22.238362	0.000948	20.736194
213.058682	-3.009500	3.845200	-11.572000	22.240460	0.000947	20.724543
214.052794	-2.997900	3.844900	-11.525000	22.231953	0.000948	20.730725
215.054416	-3.017000	3.845600	-11.601000	22.259208	0.000949	20.766076
216.061506	-3.010500	3.844100	-11.571000	22.261730	0.000949	20.751532
217.058829	-3.007400	3.843300	-11.558000	22.283358	0.000951	20.765602
218.055824	-3.011200	3.843500	-11.573000	22.308309	0.000950	20.754075
219.055346	-3.009500	3.842700	-11.563000	22.299729	0.000949	20.738370
220.055567	-3.005700	3.843200	-11.551000	22.299280	0.000951	20.751198
221.064428	-3.017900	3.842500	-11.595000	22.298161	0.000949	20.741542
222.062625	-2.997900	3.843200	-11.521000	22.269903	0.000950	20.740749
223.053315	-2.990200	3.845000	-11.496000	22.295614	0.000951	20.739940
224.059930	-3.029200	3.842200	-11.637000	22.297214	0.000951	20.751026
225.057627	-3.013200	3.843300	-11.580000	22.262172	0.000950	20.751974
226.074703	-3.000500	3.843000	-11.530000	22.290780	0.000954	20.756912
227.056616	-2.995900	3.841000	-11.505000	22.288437	0.000952	20.747454
228.063793	-2.986000	3.841200	-11.469000	22.288805	0.000954	20.742132
229.074497	-3.003000	3.841900	-11.536000	22.307403	0.000954	20.746530
230.077235	-3.006600	3.840800	-11.545000	22.299304	0.000954	20.751222
231.056710	-2.995600	3.842500	-11.510000	22.311901	0.000957	20.747240
232.054049	-3.015000	3.841200	-11.580000	22.335994	0.000955	20.735803
233.068375	-3.008400	3.841300	-11.555000	22.351424	0.000956	20.726597
234.058524	-2.991600	3.841700	-11.491000	22.352599	0.000955	20.731093
235.064248	-2.990600	3.841200	-11.486000	22.372984	0.000956	20.742498
236.059790	-3.006900	3.839700	-11.544000	22.395835	0.000957	20.735034
237.053170	-3.001500	3.840200	-11.525000	22.394976	0.000957	20.727062
238.054454	-2.991200	3.838300	-11.479000	22.430031	0.000958	20.739407
239.065348	-3.004000	3.838300	-11.529000	22.420790	0.000959	20.751490
240.067880	-2.999600	3.839500	-11.516000	22.411271	0.000956	20.726784
241.059002	-2.992000	3.838800	-11.484000	22.425475	0.000959	20.733897
242.067820	-2.989800	3.838900	-11.476000	22.431385	0.000959	20.729383
243.060245	-3.023900	3.836300	-11.600000	22.437141	0.000960	20.723293
244.064772	-2.990200	3.839100	-11.478000	22.441206	0.000961	20.739693
245.060539	-2.991200	3.838200	-11.480000	22.440129	0.000961	20.731027
246.059751	-3.000700	3.837400	-11.513000	22.424928	0.000960	20.736194
247.062836	-2.994300	3.838500	-11.492000	22.423434	0.000962	20.718575
248.062330	-3.007400	3.837100	-11.539000	22.426700	0.000962	20.716155
249.061441	-2.998200	3.837200	-11.504000	22.465507	0.000964	20.706655
250.069766	-2.993000	3.838200	-11.487000	22.446340	0.000965	20.732506
251.071435	-2.961500	3.838500	-11.366000	22.435924	0.000963	20.728713
252.065437	-2.998400	3.836400	-11.502000	22.440757	0.000966	20.702257
253.066258	-2.991400	3.837400	-11.478000	22.434030	0.000965	20.732506
254.060133	-3.009200	3.833900	-11.536000	22.448438	0.000965	20.717536
255.068587	-2.984300	3.836900	-11.450000	22.448985	0.000964	20.713817
256.062596	-2.991700	3.837000	-11.478000	22.479385	0.000966	20.713915
257.067775	-3.008500	3.834200	-11.534000	22.475833	0.000967	20.712728
258.062687	-2.998000	3.835300	-11.497000	22.495637	0.000965	20.736356
259.065219	-2.997800	3.836700	-11.501000	22.483670	0.000967	20.719630
260.064588	-3.000900	3.834700	-11.507000	22.535153	0.000967	20.723774
261.069464	-3.006000	3.834800	-11.527000	22.530745	0.000967	20.707979
262.070006	-2.997300	3.834400	-11.491000	22.509759	0.000969	20.713988
263.075185	-2.992600	3.835300	-11.476000	22.528035	0.000968	20.711428
264.068884	-3.009800	3.834200	-11.539000	22.545225	0.000970	20.699721
265.080279	-2.981200	3.834900	-11.432000	22.555420	0.000968	20.719890
266.067625	-3.005500	3.833200	-11.519000	22.551650	0.000972	20.720856
267.064175	-2.985300	3.834200	-11.443000	22.556458	0.000969	20.716662
268.079940	-2.974600	3.835000	-11.406000	22.565902	0.000971	20.729440
269.068408	-3.008500	3.833300	-11.532000	22.542728	0.000971	20.718084
270.072343	-2.960400	3.834500	-11.350000	22.523072	0.000971	20.719261
271.068866	-2.990500	3.832800	-11.461000	22.534680	0.000975	20.718558
272.067904	-2.992400	3.834200	-11.472000	22.544573	0.000973	20.717087
