LabVIEW Measurement	
Writer_Version	2
Reader_Version	2
Separator	Tab
Decimal_Separator	.
Multi_Headings	No
X_Columns	One
Time_Pref	Absolute
Operator	admin
Description	Clolumns are: time, Current, Voltage, Power, Battery Temp, and Chamber Temp
Date	2024/08/16
Time	13:06:06.104549407958984375
***End_of_Header***	
	
Channels	6						
Samples	1	1	1	1	1	1	
Date	2024/09/03	2024/09/03	2024/09/03	2024/09/03	2024/09/03	2024/09/03	
Time	02:33:18.3704152107238769531	02:33:18.3760561943054199219	02:33:18.3820981979370117187	02:33:18.3548560142517089844	02:33:18.3548560142517089844	02:33:18.3548560142517089844	
X_Dimension	Time	Time	Time	Time	Time	Time	
X0	0.0000000000000000E+0	0.0000000000000000E+0	0.0000000000000000E+0	0.0000000000000000E+0	0.0000000000000000E+0	0.0000000000000000E+0	
Delta_X	1.000000	1.000000	1.000000	1.000000	1.000000	1.000000	
***End_of_Header***							
X_Value	Untitled	Untitled 1	Untitled 2	Untitled 3	Untitled 4	Untitled 5	Comment
0.000000	0.023416	4.104200	0.096114	21.114297	0.000945	20.866356
1.003232	-3.009100	3.936200	-11.843000	21.113579	0.000945	20.875594
2.003263	-3.010600	3.928800	-11.827000	21.119074	0.000944	20.859281
3.001772	-3.019200	3.923500	-11.846000	21.109696	0.000943	20.875978
4.001328	-2.998300	3.918800	-11.748000	21.099832	0.000943	20.863741
5.002209	-2.999900	3.915100	-11.744000	21.097090	0.000945	20.885179
6.005282	-3.003300	3.914200	-11.755000	21.123982	0.000941	20.851862
7.004490	-2.990700	3.910600	-11.695000	21.111825	0.000940	20.879529
8.000209	-3.013400	3.908000	-11.775000	21.113130	0.000940	20.877516
9.000230	-3.012700	3.905400	-11.764000	21.141572	0.000941	20.869456
10.001225	-3.007800	3.903500	-11.740000	21.125725	0.000939	20.844123
11.006006	-3.009600	3.902200	-11.743000	21.126290	0.000937	20.867446
12.004854	-2.992500	3.900800	-11.672000	21.129287	0.000936	20.857169
13.001806	-3.003800	3.899400	-11.713000	21.141739	0.000937	20.864408
14.007308	-3.001100	3.898300	-11.698000	21.126173	0.000935	20.866856
15.005941	-3.006400	3.897200	-11.716000	21.128711	0.000935	20.860385
16.003879	-3.004100	3.895700	-11.702000	21.139369	0.000935	20.868201
17.005374	-3.003100	3.894600	-11.695000	21.146031	0.000932	20.881502
18.003305	-2.989200	3.893200	-11.636000	21.138421	0.000934	20.852555
19.001927	-3.019700	3.892600	-11.754000	21.139139	0.000931	20.864653
20.002624	-3.001700	3.892000	-11.681000	21.171116	0.000932	20.857285
21.003165	-3.008400	3.889900	-11.700000	21.186423	0.000934	20.852209
22.008921	-3.004700	3.889400	-11.685000	21.162737	0.000931	20.858387
23.007036	-2.991400	3.890500	-11.637000	21.189358	0.000932	20.858938
24.005790	-2.994900	3.888000	-11.644000	21.193445	0.000931	20.862078
25.005876	-2.990900	3.887200	-11.626000	21.178008	0.000929	20.852799
26.005797	-2.996100	3.887700	-11.647000	21.182044	0.000928	20.851147
27.006681	-3.006400	3.886700	-11.684000	21.201656	0.000926	20.848481
28.010501	-2.999800	3.885100	-11.654000	21.189755	0.000928	20.845111
29.008227	-2.994200	3.884400	-11.630000	21.190164	0.000927	20.858321
30.017556	-3.002600	3.883700	-11.660000	21.214709	0.000927	20.850159
31.009069	-3.006300	3.884400	-11.676000	21.227802	0.000926	20.856144
32.006961	-3.003500	3.884000	-11.665000	21.235309	0.000927	20.852748
33.012505	-2.991700	3.882700	-11.614000	21.219091	0.000924	20.841267
34.006761	-2.985500	3.882600	-11.591000	21.235681	0.000924	20.874456
35.009341	-2.998700	3.881000	-11.637000	21.224995	0.000925	20.841957
36.008973	-3.016300	3.879500	-11.698000	21.239972	0.000923	20.852198
37.008126	-3.004800	3.879700	-11.657000	21.238368	0.000924	20.848697
38.011872	-3.016300	3.879100	-11.699000	21.259467	0.000924	20.842303
39.010626	-2.996000	3.878400	-11.619000	21.252128	0.000923	20.849185
40.008643	-2.975000	3.880000	-11.542000	21.258340	0.000923	20.858719
41.009849	-3.019300	3.877500	-11.704000	21.284612	0.000922	20.847544
42.010894	-2.981900	3.879300	-11.566000	21.281422	0.000920	20.850517
43.011238	-3.005900	3.875300	-11.648000	21.287649	0.000922	20.846315
44.010385	-3.010800	3.877600	-11.674000	21.288634	0.000920	20.835447
45.011551	-3.012300	3.874600	-11.670000	21.298524	0.000920	20.860513
46.015832	-2.991000	3.876500	-11.594000	21.311616	0.000920	20.838524
47.011738	-2.977900	3.875500	-11.540000	21.309976	0.000922	20.841625
48.013719	-3.006700	3.875200	-11.651000	21.309527	0.000918	20.833590
49.017136	-3.001900	3.875500	-11.633000	21.327358	0.000921	20.860437
50.012683	-2.991800	3.875000	-11.593000	21.335761	0.000918	20.850352
51.018795	-3.000400	3.873200	-11.619000	21.341934	0.000919	20.836613
52.012783	-3.001000	3.873600	-11.622000	21.352130	0.000919	20.848237
53.012654	-2.975700	3.873400	-11.525000	21.361904	0.000917	20.842368
54.012099	-2.976300	3.873300	-11.527000	21.353720	0.000919	20.824698
55.016713	-3.027000	3.872400	-11.720000	21.377416	0.000918	20.838448
56.015319	-3.027500	3.871200	-11.718000	21.388702	0.000918	20.845472
57.014097	-3.028600	3.871700	-11.724000	21.373190	0.000921	20.835643
58.015202	-2.996900	3.872300	-11.604000	21.396179	0.000917	20.836832
59.013917	-3.010300	3.870700	-11.651000	21.393273	0.000917	20.835347
60.019202	-3.003300	3.870200	-11.622000	21.404264	0.000918	20.847766
61.019117	-2.990000	3.870800	-11.572000	21.399769	0.000919	20.817665
62.019365	-2.986200	3.873000	-11.564000	21.423476	0.000917	20.844702
63.017135	-3.002400	3.869500	-11.616000	21.422145	0.000917	20.835785
64.017179	-2.996000	3.871000	-11.596000	21.437528	0.000916	20.846908
65.018155	-2.997200	3.868600	-11.594000	21.435556	0.000916	20.862478
66.023265	-3.007100	3.869300	-11.634000	21.427934	0.000914	20.844895
67.018619	-3.006600	3.869000	-11.632000	21.449222	0.000916	20.817833
68.019303	-2.993400	3.868600	-11.579000	21.441767	0.000918	20.814167
69.019458	-2.984200	3.868600	-11.543000	21.453564	0.000915	20.822651
70.019685	-3.003600	3.868200	-11.617000	21.459713	0.000915	20.832596
71.020958	-3.000500	3.867700	-11.603000	21.477399	0.000916	20.837017
72.020062	-2.983400	3.868800	-11.541000	21.459982	0.000917	20.822435
73.018337	-3.007300	3.865900	-11.625000	21.478489	0.000914	20.835737
74.021002	-3.025700	3.865600	-11.694000	21.496456	0.000915	20.838067
75.019861	-3.004900	3.867100	-11.619000	21.486815	0.000916	20.824627
76.023457	-3.007500	3.864000	-11.621000	21.488787	0.000913	20.827074
77.019574	-2.999700	3.866300	-11.597000	21.508766	0.000917	20.834263
78.022318	-3.004700	3.867400	-11.620000	21.512327	0.000916	20.819809
79.020854	-3.015600	3.864100	-11.652000	21.504348	0.000915	20.823205
80.020603	-2.977900	3.865600	-11.510000	21.522508	0.000917	20.811030
81.022773	-2.968500	3.866600	-11.477000	21.506615	0.000915	20.815990
82.023392	-3.014000	3.862800	-11.641000	21.532473	0.000914	20.822898
83.023152	-2.978400	3.864100	-11.508000	21.560852	0.000917	20.824269
84.025828	-3.014200	3.864000	-11.646000	21.560328	0.000915	20.832279
85.021870	-3.013700	3.862900	-11.641000	21.576631	0.000917	20.809713
86.022389	-2.996000	3.863800	-11.575000	21.591076	0.000914	20.814684
87.025326	-3.001200	3.861900	-11.590000	21.579667	0.000916	20.818915
88.022348	-3.019500	3.861000	-11.657000	21.581511	0.000915	20.821708
89.028113	-2.982300	3.862600	-11.518000	21.585776	0.000914	20.819338
90.024240	-2.998200	3.862400	-11.580000	21.565631	0.000915	20.798231
91.022888	-2.987300	3.862100	-11.535000	21.575337	0.000915	20.813160
92.029336	-2.996100	3.861300	-11.568000	21.603038	0.000914	20.826654
93.023510	-3.008000	3.862900	-11.619000	21.603424	0.000915	20.803333
94.024289	-2.995400	3.862400	-11.568000	21.611311	0.000916	20.826399
95.024354	-3.011100	3.860100	-11.621000	21.631019	0.000915	20.808188
96.024634	-3.005000	3.860400	-11.600000	21.622388	0.000915	20.810457
97.024708	-3.007500	3.861200	-11.611000	21.648961	0.000917	20.821402
98.028238	-3.003000	3.860900	-11.593000	21.631813	0.000916	20.808983
99.023899	-3.011700	3.860300	-11.624000	21.627061	0.000917	20.817029
100.025670	-3.019400	3.860100	-11.654000	21.636974	0.000918	20.804191
101.025528	-2.993500	3.860900	-11.555000	21.639317	0.000915	20.809381
102.024113	-2.994300	3.859300	-11.554000	21.637550	0.000917	20.791491
103.030517	-3.002700	3.859700	-11.588000	21.672367	0.000915	20.818273
104.025338	-2.987900	3.860400	-11.533000	21.685043	0.000918	20.808199
105.026110	-3.011400	3.856800	-11.612000	21.684161	0.000917	20.813480
106.027028	-3.003300	3.860600	-11.593000	21.691730	0.000916	20.803512
107.026882	-2.999900	3.858400	-11.573000	21.705725	0.000917	20.810880
108.029558	-3.008300	3.857600	-11.604000	21.711615	0.000917	20.803498
109.026312	-3.007500	3.858600	-11.603000	21.719516	0.000916	20.796706
110.029730	-3.000200	3.857900	-11.572000	21.744279	0.000916	20.801576
111.027938	-3.014200	3.856500	-11.624000	21.735701	0.000916	20.801050
112.027617	-3.003700	3.858000	-11.586000	21.748864	0.000917	20.813276
113.029497	-2.995700	3.856400	-11.551000	21.755522	0.000918	20.806664
114.032058	-3.009400	3.856800	-11.605000	21.743153	0.000917	20.799974
115.029126	-2.992200	3.855900	-11.535000	21.752628	0.000917	20.793810
116.028060	-2.992900	3.857000	-11.542000	21.753948	0.000916	20.783277
117.031840	-3.014600	3.855100	-11.620000	21.751670	0.000916	20.823196
118.027942	-3.002000	3.856100	-11.575000	21.770453	0.000915	20.813072
119.035227	-2.996600	3.855700	-11.553000	21.783488	0.000917	20.791505
120.035290	-2.977400	3.856500	-11.481000	21.793808	0.000920	20.800412
121.035345	-3.043600	3.854700	-11.732000	21.778251	0.000919	20.789109
122.030237	-3.014100	3.855500	-11.620000	21.792438	0.000917	20.806153
123.029397	-3.009200	3.854800	-11.599000	21.780543	0.000918	20.806576
124.033577	-3.036300	3.854500	-11.702000	21.802707	0.000919	20.789404
125.031540	-2.997000	3.855100	-11.553000	21.799788	0.000919	20.788379
126.031437	-2.998100	3.854900	-11.555000	21.801978	0.000918	20.794838
127.031353	-2.984800	3.854700	-11.505000	21.785718	0.000919	20.770029
128.031579	-2.988000	3.854500	-11.517000	21.790991	0.000920	20.766772
129.031704	-2.989300	3.854400	-11.522000	21.791530	0.000919	20.787226
130.037785	-2.995700	3.855300	-11.548000	21.806114	0.000920	20.787124
131.036519	-2.985500	3.854300	-11.506000	21.775474	0.000922	20.802924
132.034660	-2.991400	3.855000	-11.531000	21.808982	0.000919	20.789520
133.032111	-2.990800	3.853000	-11.523000	21.790517	0.000920	20.788109
134.035118	-2.965300	3.853900	-11.427000	21.803016	0.000920	20.802516
135.036545	-3.004200	3.852500	-11.573000	21.825359	0.000920	20.780307
136.035604	-3.032800	3.852100	-11.681000	21.836958	0.000920	20.798081
137.039681	-2.995400	3.853000	-11.539000	21.856971	0.000921	20.792033
138.040386	-2.995300	3.852500	-11.539000	21.866084	0.000920	20.773180
139.033762	-3.007100	3.852200	-11.583000	21.859671	0.000921	20.770080
140.036563	-3.020000	3.850700	-11.627000	21.893497	0.000923	20.767428
141.035014	-3.025000	3.850000	-11.645000	21.880103	0.000922	20.789583
142.035491	-2.986100	3.852500	-11.502000	21.891934	0.000920	20.779614
143.036049	-3.018200	3.851600	-11.624000	21.880551	0.000923	20.759685
144.034513	-3.011900	3.850800	-11.597000	21.922353	0.000922	20.791096
145.035786	-2.997600	3.850800	-11.542000	21.902163	0.000922	20.792697
146.039901	-2.993100	3.850200	-11.523000	21.923862	0.000923	20.776959
147.038346	-2.979300	3.851900	-11.475000	21.968759	0.000923	20.781125
148.040534	-3.005600	3.848700	-11.567000	21.962205	0.000925	20.783098
149.039425	-2.996100	3.850600	-11.536000	21.928613	0.000922	20.768439
150.041681	-3.014600	3.849400	-11.604000	21.974764	0.000923	20.777178
151.043005	-3.021700	3.848100	-11.626000	21.969346	0.000925	20.776022
152.041163	-3.002200	3.850100	-11.558000	21.975249	0.000923	20.766758
153.041642	-2.996400	3.850100	-11.535000	21.973624	0.000927	20.783149
154.040327	-2.992100	3.849800	-11.518000	21.981151	0.000926	20.757967
155.053165	-3.014500	3.849000	-11.602000	21.965378	0.000926	20.772998
156.040796	-2.975700	3.848700	-11.451000	21.981432	0.000925	20.782431
157.043307	-2.992100	3.848500	-11.513000	21.996462	0.000926	20.766181
158.041581	-2.988900	3.848900	-11.502000	22.017558	0.000927	20.768333
159.040787	-3.001800	3.848000	-11.550000	21.984926	0.000928	20.765065
160.043211	-2.994000	3.849500	-11.524000	22.019926	0.000926	20.783507
161.042293	-3.002300	3.846300	-11.547000	22.015022	0.000928	20.776227
162.045025	-2.996100	3.847400	-11.525000	22.013000	0.000928	20.764245
163.041466	-3.020200	3.846200	-11.616000	22.024007	0.000928	20.788540
164.046838	-2.998300	3.845800	-11.529000	22.032445	0.000930	20.769960
165.043545	-3.010400	3.846500	-11.579000	22.028015	0.000929	20.766474
166.043283	-3.003500	3.846400	-11.552000	22.039637	0.000929	20.771471
167.044496	-3.016500	3.844000	-11.594000	22.025005	0.000929	20.777686
168.044586	-3.009900	3.844200	-11.568000	22.035309	0.000929	20.763819
169.044430	-3.021700	3.846200	-11.620000	22.030306	0.000930	20.777303
170.046361	-3.008200	3.845100	-11.566000	22.071076	0.000930	20.756950
171.044111	-3.011400	3.844800	-11.577000	22.042570	0.000932	20.761130
172.044148	-2.986500	3.845200	-11.483000	22.077747	0.000933	20.765525
173.048851	-2.995500	3.844100	-11.514000	22.088331	0.000932	20.776596
174.046279	-2.977500	3.844000	-11.443000	22.096677	0.000933	20.766933
175.057309	-3.022500	3.843000	-11.614000	22.093260	0.000932	20.768254
176.048101	-2.981200	3.843500	-11.458000	22.090185	0.000934	20.762331
177.047245	-2.984500	3.844300	-11.472000	22.121331	0.000933	20.772175
178.050047	-2.985700	3.843800	-11.475000	22.094987	0.000932	20.761448
179.048234	-2.997400	3.843900	-11.521000	22.098557	0.000932	20.751272
180.049668	-3.000800	3.843800	-11.534000	22.097726	0.000933	20.784580
181.049171	-2.970800	3.843600	-11.418000	22.114584	0.000934	20.756885
182.049519	-2.999000	3.842400	-11.522000	22.126872	0.000935	20.766817
183.054029	-2.992000	3.842800	-11.496000	22.128344	0.000935	20.774929
184.051705	-3.002300	3.841500	-11.532000	22.133247	0.000938	20.774622
185.053471	-2.998100	3.841000	-11.514000	22.167667	0.000936	20.762615
186.062359	-2.995800	3.842000	-11.507000	22.161328	0.000935	20.750579
187.051290	-2.999400	3.840600	-11.518000	22.171543	0.000936	20.766022
188.051140	-2.996600	3.841000	-11.508000	22.162137	0.000937	20.767984
189.052545	-2.981300	3.841000	-11.451000	22.200086	0.000936	20.786539
190.052888	-3.015500	3.840600	-11.580000	22.201379	0.000937	20.767444
191.051782	-2.985000	3.841300	-11.464000	22.202326	0.000938	20.766022
192.051482	-3.007700	3.840400	-11.549000	22.221498	0.000941	20.761036
193.057163	-2.979600	3.841400	-11.445000	22.233272	0.000939	20.776618
194.051221	-2.986400	3.839400	-11.464000	22.238558	0.000938	20.761522
195.052477	-2.995400	3.840400	-11.503000	22.224544	0.000940	20.791113
196.053227	-3.020200	3.838500	-11.592000	22.238649	0.000940	20.757819
197.055463	-3.018900	3.838800	-11.587000	22.221331	0.000939	20.766084
198.053904	-3.019700	3.838600	-11.590000	22.248670	0.000940	20.773543
199.057777	-3.000000	3.839400	-11.518000	22.246980	0.000941	20.776118
200.054020	-2.998600	3.837600	-11.506000	22.237699	0.000943	20.781998
201.054898	-3.000100	3.838900	-11.515000	22.270490	0.000941	20.764097
202.054114	-2.980400	3.839300	-11.441000	22.236190	0.000941	20.790445
203.053383	-3.003000	3.839300	-11.528000	22.253865	0.000943	20.774003
204.057919	-3.000000	3.838300	-11.513000	22.239644	0.000942	20.774937
205.054786	-2.994500	3.837500	-11.490000	22.254040	0.000945	20.764222
206.060420	-2.989000	3.837900	-11.470000	22.267249	0.000942	20.783611
207.054340	-2.991700	3.838000	-11.480000	22.279484	0.000945	20.772629
208.055060	-2.990500	3.837000	-11.474000	22.292678	0.000946	20.782047
209.058441	-2.986400	3.836900	-11.458000	22.289134	0.000945	20.783239
210.057836	-2.992600	3.836400	-11.480000	22.291731	0.000948	20.784892
211.057306	-2.991400	3.837400	-11.477000	22.310825	0.000948	20.776984
212.056844	-2.994600	3.836500	-11.487000	22.302429	0.000947	20.788018
213.057209	-2.997800	3.837300	-11.502000	22.300893	0.000948	20.804971
214.056965	-2.980500	3.836800	-11.435000	22.290500	0.000948	20.778443
215.055507	-2.996800	3.836400	-11.496000	22.320883	0.000949	20.782313
216.057498	-3.003700	3.835700	-11.520000	22.315470	0.000950	20.791592
217.057663	-2.999300	3.835500	-11.503000	22.333296	0.000950	20.763449
218.057029	-3.002800	3.834800	-11.513000	22.348460	0.000950	20.777685
219.058130	-2.992100	3.835600	-11.476000	22.345889	0.000949	20.788861
220.063077	-2.997300	3.834700	-11.493000	22.342880	0.000951	20.801495
221.058505	-2.980600	3.835700	-11.431000	22.372609	0.000951	20.801393
222.059610	-3.014500	3.833200	-11.554000	22.370752	0.000952	20.795740
223.060694	-3.004100	3.834800	-11.519000	22.362524	0.000952	20.800303
224.061031	-2.997700	3.833400	-11.489000	22.372799	0.000951	20.799213
225.062785	-2.973900	3.834700	-11.403000	22.371929	0.000953	20.786013
226.064445	-2.978200	3.834300	-11.418000	22.371852	0.000952	20.801583
227.061608	-2.992800	3.834100	-11.473000	22.391867	0.000954	20.806453
228.061996	-3.009300	3.833500	-11.534000	22.400415	0.000955	20.780400
229.061450	-2.992200	3.832600	-11.467000	22.414747	0.000953	20.791907
230.062729	-2.982400	3.831900	-11.428000	22.419213	0.000955	20.798276
231.066321	-2.979300	3.832300	-11.416000	22.423460	0.000955	20.797787
232.062439	-3.002500	3.832000	-11.504000	22.438101	0.000955	20.802018
233.068811	-2.984200	3.833400	-11.438000	22.472202	0.000956	20.795391
234.062494	-2.997800	3.832700	-11.489000	22.466495	0.000958	20.796788
235.062645	-2.997400	3.831600	-11.484000	22.456181	0.000956	20.788355
236.070133	-2.979000	3.831500	-11.412000	22.472035	0.000958	20.802336
237.062252	-3.011200	3.829900	-11.531000	22.459673	0.000958	20.803707
238.063470	-2.999100	3.829600	-11.485000	22.468043	0.000958	20.809718
239.063257	-2.979400	3.831100	-11.413000	22.489552	0.000959	20.782895
240.064447	-2.978000	3.832200	-11.412000	22.486303	0.000958	20.810936
241.065158	-3.014000	3.830400	-11.544000	22.475196	0.000959	20.805501
242.067326	-3.013500	3.830200	-11.541000	22.473815	0.000961	20.819291
243.063771	-3.000200	3.829400	-11.488000	22.469143	0.000960	20.798017
244.063814	-3.003400	3.829000	-11.498000	22.445036	0.000963	20.826032
245.064945	-2.991300	3.830800	-11.458000	22.471896	0.000962	20.796981
246.064704	-3.001500	3.828900	-11.491000	22.482246	0.000963	20.802131
247.067729	-3.003800	3.830100	-11.504000	22.476106	0.000962	20.814473
248.065263	-3.007400	3.828100	-11.512000	22.500878	0.000962	20.783333
249.068198	-2.992400	3.829400	-11.458000	22.502784	0.000964	20.817483
250.064946	-3.009800	3.828700	-11.522000	22.492586	0.000965	20.810115
251.066382	-3.037100	3.827500	-11.623000	22.510526	0.000965	20.809590
252.066926	-3.018900	3.828400	-11.557000	22.521044	0.000964	20.819649
253.069566	-3.028100	3.827100	-11.587000	22.546340	0.000965	20.812741
254.065413	-3.004700	3.828200	-11.501000	22.552673	0.000966	20.802015
255.067374	-3.003100	3.828200	-11.494000	22.555054	0.000965	20.820995
256.065165	-3.013700	3.827800	-11.534000	22.545036	0.000965	20.813332
257.066380	-2.983800	3.828200	-11.422000	22.556639	0.000968	20.838703
258.068794	-3.009100	3.824700	-11.508000	22.585954	0.000968	20.807847
259.064697	-3.004800	3.827300	-11.499000	22.608267	0.000967	20.834935
260.071620	-3.002900	3.825600	-11.487000	22.595062	0.000966	20.819814
261.065581	-3.004100	3.824800	-11.489000	22.620102	0.000970	20.826401
262.065637	-2.992000	3.826800	-11.449000	22.624119	0.000968	20.838010
263.069747	-2.981600	3.826700	-11.409000	22.626063	0.000969	20.812932
264.066075	-2.996600	3.824800	-11.460000	22.595933	0.000969	20.825427
265.064745	-3.004600	3.824300	-11.488000	22.608048	0.000972	20.821915
266.067183	-3.019800	3.825000	-11.548000	22.607396	0.000972	20.833589
267.068985	-3.014600	3.824600	-11.528000	22.613704	0.000971	20.813829
268.066433	-3.005000	3.825000	-11.493000	22.601665	0.000973	20.828797
269.069176	-2.995300	3.825100	-11.457000	22.605234	0.000973	20.837113
270.065135	-2.993200	3.825100	-11.447000	22.601151	0.000972	20.826861
271.067063	-3.012500	3.824600	-11.520000	22.608686	0.000975	20.841519
272.068238	-3.024800	3.823200	-11.563000	22.597415	0.000974	20.824541
