LabVIEW Measurement	
Writer_Version	2
Reader_Version	2
Separator	Tab
Decimal_Separator	.
Multi_Headings	No
X_Columns	One
Time_Pref	Absolute
Operator	admin
Description	Clolumns are: time, Current, Voltage, Power, Battery Temp, and Chamber Temp
Date	2024/08/15
Time	11:52:21.3415808677673339844
***End_of_Header***	
	
Channels	6						
Samples	1	1	1	1	1	1	
Date	2024/08/15	2024/08/15	2024/08/15	2024/08/15	2024/08/15	2024/08/15	
Time	11:52:21.3584895133972167969	11:52:21.363536834716796875	11:52:21.3705592155456542969	11:52:21.3415808677673339844	11:52:21.3415808677673339844	11:52:21.3415808677673339844	
X_Dimension	Time	Time	Time	Time	Time	Time	
X0	0.0000000000000000E+0	0.0000000000000000E+0	0.0000000000000000E+0	0.0000000000000000E+0	0.0000000000000000E+0	0.0000000000000000E+0	
Delta_X	1.000000	1.000000	1.000000	1.000000	1.000000	1.000000	
***End_of_Header***							
X_Value	Untitled	Untitled 1	Untitled 2	Untitled 3	Untitled 4	Untitled 5	Comment
0.000000	0.028730	4.074700	0.116990	20.991144	0.000893	20.815249
1.003204	-2.999300	3.930600	-11.787000	20.989371	0.000892	20.833390
2.002781	-2.983600	3.925600	-11.711000	20.983583	0.000891	20.828076
3.001437	-2.976100	3.923900	-11.677000	20.998483	0.000893	20.824485
4.002317	-3.003900	3.919400	-11.772000	20.970704	0.000890	20.817565
5.003210	-2.995900	3.916800	-11.733000	20.976368	0.000891	20.808531
6.003341	-3.005500	3.915600	-11.767000	20.977489	0.000888	20.830515
7.003073	-3.023900	3.913600	-11.833000	20.989291	0.000890	20.839000
8.002140	-3.017700	3.910700	-11.800000	20.996175	0.000888	20.836402
8.999994	-2.994300	3.910200	-11.707000	21.014910	0.000888	20.825743
10.002782	-3.006400	3.909300	-11.752000	20.987715	0.000887	20.809449
11.004359	-3.000800	3.907000	-11.723000	20.988011	0.000888	20.842461
12.004991	-2.996900	3.907400	-11.708000	20.985690	0.000888	20.842510
13.001079	-2.990800	3.905900	-11.681000	20.991884	0.000888	20.845860
14.004060	-2.983800	3.904500	-11.650000	21.011315	0.000888	20.825466
15.006579	-2.967800	3.905500	-11.590000	21.019171	0.000885	20.830004
16.000719	-2.975300	3.904100	-11.615000	21.024262	0.000885	20.841260
17.003481	-3.009800	3.902600	-11.745000	21.011161	0.000883	20.840011
18.005779	-3.000500	3.901400	-11.705000	21.006020	0.000887	20.825386
19.006020	-3.002300	3.901400	-11.712000	21.036133	0.000885	20.845547
20.005946	-3.012000	3.900000	-11.746000	21.053525	0.000885	20.837338
21.003199	-3.022400	3.899500	-11.785000	21.024183	0.000884	20.847345
22.012491	-3.012500	3.899100	-11.746000	21.049382	0.000885	20.859272
23.006219	-3.006300	3.897700	-11.716000	21.051407	0.000884	20.839487
24.007327	-2.999200	3.898100	-11.690000	21.074106	0.000884	20.851286
25.005230	-2.991200	3.898500	-11.660000	21.023912	0.000884	20.863194
26.004423	-2.999900	3.896100	-11.687000	21.071631	0.000882	20.864457
27.004025	-2.987000	3.897200	-11.640000	21.066713	0.000884	20.830615
28.006123	-3.019300	3.894300	-11.756000	21.072451	0.000883	20.852001
29.009251	-3.022400	3.894500	-11.770000	21.062723	0.000884	20.854125
30.008015	-3.004900	3.893500	-11.698000	21.055558	0.000883	20.844587
31.007448	-2.984600	3.894500	-11.622000	21.091105	0.000884	20.834624
32.012539	-3.005400	3.894600	-11.704000	21.081679	0.000883	20.837050
33.006452	-2.996000	3.892800	-11.661000	21.088784	0.000886	20.844631
34.012034	-2.997100	3.894100	-11.670000	21.098117	0.000884	20.841164
35.009357	-3.025600	3.892600	-11.777000	21.092182	0.000883	20.824322
36.006949	-2.999000	3.893300	-11.676000	21.095919	0.000882	20.844655
37.012948	-2.997400	3.891100	-11.662000	21.090748	0.000881	20.837113
38.011325	-2.992300	3.892600	-11.646000	21.093371	0.000883	20.840210
39.008795	-2.994300	3.892300	-11.654000	21.117891	0.000884	20.841977
40.013746	-2.994400	3.893100	-11.657000	21.099103	0.000883	20.825081
41.013883	-2.996400	3.891600	-11.659000	21.113422	0.000883	20.816645
42.014497	-3.007200	3.889700	-11.697000	21.113773	0.000883	20.837858
43.013739	-2.988600	3.891300	-11.629000	21.129317	0.000882	20.827803
44.018403	-3.010600	3.890000	-11.710000	21.115466	0.000882	20.821534
45.009736	-3.010400	3.889400	-11.708000	21.118286	0.000884	20.823406
46.014137	-3.013900	3.888400	-11.718000	21.118760	0.000883	20.822458
47.014248	-3.008800	3.888800	-11.698000	21.147447	0.000885	20.823653
48.018100	-2.991400	3.888300	-11.631000	21.140638	0.000882	20.813997
49.017200	-2.990600	3.888700	-11.629000	21.138693	0.000883	20.818215
50.024339	-3.030500	3.888900	-11.783000	21.157599	0.000883	20.828117
51.017821	-3.019600	3.887200	-11.737000	21.177107	0.000883	20.810174
52.012967	-3.023800	3.884700	-11.746000	21.191357	0.000884	20.816842
53.014613	-3.005600	3.884500	-11.674000	21.164142	0.000884	20.816645
54.014108	-3.008400	3.887100	-11.693000	21.155875	0.000883	20.801738
55.013736	-2.989100	3.886200	-11.614000	21.188962	0.000885	20.813499
56.018259	-3.018500	3.886600	-11.731000	21.183896	0.000884	20.814595
57.019685	-3.021400	3.885000	-11.737000	21.205171	0.000884	20.826868
58.023436	-2.993700	3.887200	-11.637000	21.204124	0.000884	20.814915
59.018759	-2.987600	3.885200	-11.606000	21.188488	0.000885	20.813973
60.018744	-2.989800	3.887100	-11.621000	21.196595	0.000886	20.803117
61.019186	-2.995000	3.885100	-11.636000	21.218694	0.000885	20.803887
62.018213	-3.003100	3.885400	-11.667000	21.195069	0.000885	20.812021
63.018967	-2.989600	3.884900	-11.613000	21.204500	0.000886	20.810549
64.018859	-3.010000	3.884200	-11.690000	21.211141	0.000886	20.796331
65.018247	-2.988700	3.884900	-11.610000	21.202899	0.000886	20.817957
66.019344	-2.999400	3.884600	-11.651000	21.226100	0.000885	20.787113
67.021773	-2.990600	3.884200	-11.616000	21.229226	0.000887	20.818215
68.018284	-3.002400	3.882600	-11.655000	21.234533	0.000887	20.787014
69.019943	-3.002800	3.884600	-11.664000	21.243218	0.000885	20.800918
70.020367	-2.985500	3.883200	-11.592000	21.240621	0.000887	20.797846
71.020601	-2.998200	3.882800	-11.641000	21.238325	0.000887	20.805981
72.019140	-3.015700	3.881700	-11.705000	21.249571	0.000887	20.816757
73.023430	-2.998500	3.882300	-11.640000	21.250273	0.000887	20.799441
74.021904	-2.995900	3.881200	-11.627000	21.244659	0.000887	20.798567
75.022689	-2.993100	3.883200	-11.622000	21.259450	0.000887	20.792027
76.020996	-2.995000	3.882000	-11.625000	21.277412	0.000889	20.787236
77.021121	-2.992200	3.881100	-11.612000	21.271201	0.000889	20.780549
78.022835	-2.989400	3.881400	-11.602000	21.278058	0.000889	20.803056
79.023194	-3.025800	3.880400	-11.741000	21.274242	0.000891	20.775056
80.023187	-3.006600	3.880500	-11.666000	21.289230	0.000890	20.776774
81.021006	-3.023300	3.879300	-11.727000	21.287987	0.000892	20.777427
82.020877	-3.001500	3.880400	-11.645000	21.282570	0.000891	20.781017
83.023395	-3.000600	3.879900	-11.640000	21.302175	0.000892	20.773603
84.022669	-2.977200	3.881100	-11.554000	21.316516	0.000891	20.795064
85.021708	-3.005200	3.879900	-11.658000	21.304021	0.000890	20.784934
86.021183	-3.010000	3.878900	-11.674000	21.338471	0.000893	20.781941
87.020733	-3.015700	3.878100	-11.694000	21.306643	0.000892	20.804626
88.023147	-3.014200	3.878700	-11.690000	21.324949	0.000894	20.785956
89.021845	-2.994800	3.880200	-11.620000	21.319612	0.000894	20.772082
90.021844	-3.030100	3.879000	-11.753000	21.321834	0.000895	20.776202
91.020222	-3.000300	3.878400	-11.634000	21.333178	0.000895	20.780913
92.023352	-3.018400	3.878500	-11.706000	21.339241	0.000894	20.781763
93.023388	-2.987300	3.878100	-11.584000	21.330661	0.000895	20.785507
94.025620	-3.016700	3.877700	-11.697000	21.344577	0.000896	20.792317
95.026631	-3.006200	3.878200	-11.658000	21.357699	0.000897	20.767513
96.025955	-3.000200	3.877400	-11.632000	21.377204	0.000896	20.764268
97.026564	-3.005200	3.876800	-11.649000	21.393268	0.000896	20.778444
98.026971	-2.970200	3.878600	-11.518000	21.386208	0.000896	20.780390
99.024632	-2.984700	3.876200	-11.568000	21.371585	0.000895	20.769552
100.024383	-2.982400	3.876900	-11.561000	21.373191	0.000899	20.764520
101.024699	-2.986800	3.877300	-11.579000	21.386805	0.000899	20.775297
102.029488	-3.024800	3.873600	-11.716000	21.398628	0.000897	20.779540
103.026233	-3.005400	3.876200	-11.648000	21.389975	0.000901	20.777046
104.032029	-3.018400	3.875300	-11.697000	21.416957	0.000899	20.786024
105.030674	-3.014000	3.875100	-11.679000	21.425739	0.000903	20.765888
106.025962	-2.996900	3.875100	-11.612000	21.413560	0.000901	20.753702
107.028871	-3.009100	3.874500	-11.658000	21.415862	0.000902	20.793463
108.026773	-2.990700	3.875500	-11.590000	21.420077	0.000902	20.774921
109.026315	-2.978500	3.875600	-11.543000	21.426509	0.000902	20.782305
110.031582	-3.017600	3.874300	-11.690000	21.421376	0.000901	20.771953
111.031074	-2.988600	3.875400	-11.580000	21.433963	0.000905	20.753252
112.024979	-2.993000	3.874400	-11.595000	21.438756	0.000902	20.749514
113.027589	-3.013800	3.873200	-11.672000	21.438258	0.000904	20.756127
114.024320	-2.996100	3.873700	-11.605000	21.444566	0.000904	20.776665
115.025483	-3.003800	3.873800	-11.635000	21.463861	0.000903	20.765624
116.032004	-2.995000	3.874700	-11.604000	21.482372	0.000904	20.764232
117.030169	-3.001600	3.873600	-11.626000	21.474015	0.000906	20.767724
118.024299	-2.979700	3.873500	-11.540000	21.479198	0.000905	20.761055
119.026431	-2.984500	3.873800	-11.561000	21.464360	0.000907	20.780822
120.025305	-2.997100	3.873000	-11.607000	21.497925	0.000907	20.752293
121.025975	-3.002100	3.872700	-11.625000	21.483013	0.000908	20.757761
122.026071	-2.997500	3.871400	-11.603000	21.460040	0.000909	20.753266
123.026793	-2.996000	3.870500	-11.595000	21.469013	0.000909	20.756554
124.027247	-2.989000	3.872200	-11.574000	21.493304	0.000910	20.760471
125.029517	-3.005100	3.872400	-11.635000	21.503882	0.000909	20.763944
126.029402	-3.002000	3.870900	-11.619000	21.498092	0.000911	20.757675
127.031819	-2.997400	3.870200	-11.599000	21.491359	0.000909	20.763267
128.028327	-3.000000	3.870100	-11.610000	21.525022	0.000910	20.732465
129.030598	-2.993400	3.871300	-11.587000	21.540709	0.000913	20.751481
130.032115	-3.002200	3.870000	-11.618000	21.534420	0.000912	20.752300
131.032328	-2.993400	3.870700	-11.585000	21.540876	0.000914	20.757812
132.029242	-2.993200	3.869400	-11.582000	21.544500	0.000914	20.754326
133.035106	-2.999700	3.868700	-11.604000	21.566956	0.000915	20.736019
134.032979	-3.012600	3.867700	-11.651000	21.572223	0.000915	20.772111
135.029422	-3.024900	3.868300	-11.700000	21.566444	0.000913	20.736455
136.035225	-2.999200	3.868700	-11.602000	21.580254	0.000917	20.779199
137.033374	-3.004300	3.868400	-11.620000	21.606640	0.000917	20.747282
138.030770	-3.003900	3.867900	-11.618000	21.591724	0.000918	20.746580
139.031399	-3.000000	3.870500	-11.610000	21.612887	0.000920	20.747843
140.034940	-3.007500	3.868200	-11.632000	21.595386	0.000920	20.751667
141.031724	-2.995300	3.868200	-11.586000	21.618203	0.000920	20.750793
142.035907	-3.013000	3.868700	-11.655000	21.623459	0.000920	20.746095
143.033642	-3.003200	3.868400	-11.617000	21.606574	0.000920	20.738680
144.036251	-3.018300	3.866100	-11.668000	21.616949	0.000921	20.761865
145.035688	-2.989500	3.867100	-11.560000	21.623355	0.000920	20.764009
146.036082	-2.989900	3.867000	-11.561000	21.636720	0.000922	20.760314
147.033179	-2.997700	3.865900	-11.587000	21.620753	0.000922	20.735325
148.039527	-3.001400	3.866100	-11.603000	21.605966	0.000922	20.757987
149.033935	-3.010300	3.865300	-11.635000	21.620624	0.000923	20.751318
150.032088	-3.003000	3.867700	-11.613000	21.624094	0.000925	20.751946
151.033090	-3.010600	3.865000	-11.633000	21.640198	0.000925	20.745302
152.036234	-3.027300	3.864500	-11.697000	21.637177	0.000924	20.750814
153.035522	-2.991800	3.866300	-11.567000	21.651717	0.000924	20.738337
154.036645	-2.977400	3.864800	-11.506000	21.668369	0.000924	20.756899
155.040464	-2.977300	3.866400	-11.511000	21.661607	0.000924	20.749657
156.038942	-2.988800	3.864700	-11.549000	21.702605	0.000927	20.755125
157.037368	-2.997000	3.864400	-11.581000	21.671581	0.000925	20.748259
158.036909	-3.006600	3.864200	-11.616000	21.698403	0.000928	20.740489
159.036797	-2.996600	3.864600	-11.580000	21.706033	0.000926	20.742909
160.039595	-3.003700	3.864200	-11.606000	21.705787	0.000926	20.753568
161.042493	-2.986900	3.863600	-11.540000	21.714986	0.000929	20.758507
162.041025	-2.988200	3.863100	-11.542000	21.699770	0.000929	20.742330
163.041241	-2.988700	3.863300	-11.545000	21.733457	0.000928	20.732422
164.039420	-2.986200	3.862400	-11.532000	21.738669	0.000929	20.737164
165.039447	-3.005700	3.862300	-11.607000	21.745118	0.000931	20.719435
166.040060	-3.006500	3.864200	-11.616000	21.751800	0.000930	20.743668
167.039041	-2.989200	3.862500	-11.545000	21.765361	0.000931	20.736851
168.041928	-2.996200	3.863300	-11.573000	21.733476	0.000934	20.741925
169.042058	-3.012000	3.863400	-11.635000	21.752717	0.000932	20.731309
170.043312	-3.002600	3.863100	-11.598000	21.777150	0.000932	20.743909
171.049399	-3.011600	3.862200	-11.631000	21.773858	0.000933	20.742511
172.040362	-3.007200	3.860500	-11.608000	21.797072	0.000934	20.736821
173.044426	-3.014100	3.861500	-11.638000	21.808066	0.000935	20.740239
174.045547	-3.012900	3.861000	-11.632000	21.822826	0.000935	20.726562
175.044019	-3.016300	3.861300	-11.645000	21.827361	0.000937	20.731101
176.041144	-2.990500	3.860900	-11.545000	21.824420	0.000938	20.746176
177.043250	-2.990700	3.860100	-11.543000	21.827040	0.000940	20.735996
178.045011	-2.999700	3.859400	-11.575000	21.860497	0.000939	20.741034
179.044793	-3.002500	3.859300	-11.587000	21.847879	0.000942	20.747371
180.046939	-2.996000	3.858500	-11.558000	21.836805	0.000940	20.752882
181.044672	-2.983200	3.859500	-11.511000	21.859347	0.000940	20.719967
182.042624	-2.990600	3.859600	-11.542000	21.854960	0.000943	20.721740
183.043791	-2.988100	3.859300	-11.531000	21.857422	0.000942	20.732265
184.044808	-3.005100	3.858200	-11.593000	21.859311	0.000941	20.729889
185.040810	-2.998700	3.856600	-11.564000	21.856271	0.000943	20.729217
186.043692	-3.006800	3.859000	-11.603000	21.834278	0.000945	20.729015
187.044624	-3.004700	3.857800	-11.590000	21.867906	0.000944	20.734225
188.046209	-3.028600	3.856600	-11.680000	21.863421	0.000945	20.723097
189.047206	-3.023500	3.856800	-11.660000	21.870176	0.000947	20.736023
190.044631	-3.001900	3.857700	-11.578000	21.859231	0.000946	20.740716
191.043241	-3.022900	3.855600	-11.653000	21.896022	0.000949	20.729650
192.044324	-2.998300	3.856100	-11.561000	21.855006	0.000949	20.736960
193.044170	-2.976100	3.857900	-11.479000	21.892479	0.000946	20.733690
194.045387	-2.998700	3.857000	-11.564000	21.896189	0.000950	20.718437
195.043462	-2.990600	3.856200	-11.530000	21.913469	0.000949	20.726726
196.044351	-3.001400	3.855700	-11.570000	21.906413	0.000949	20.722033
197.044963	-2.983700	3.856000	-11.504000	21.911391	0.000949	20.731758
198.045065	-2.987900	3.855900	-11.521000	21.903891	0.000950	20.738002
199.049498	-3.015500	3.854900	-11.623000	21.934251	0.000950	20.729036
200.047035	-3.004900	3.853800	-11.579000	21.906580	0.000950	20.744013
201.049156	-2.993600	3.855400	-11.541000	21.896651	0.000952	20.713210
202.049165	-2.990000	3.855400	-11.526000	21.903831	0.000953	20.731303
203.048967	-2.972900	3.855100	-11.460000	21.908248	0.000954	20.712963
204.045088	-3.023000	3.853000	-11.645000	21.909816	0.000953	20.715482
205.047845	-2.999000	3.855300	-11.562000	21.915980	0.000956	20.716910
206.051195	-3.002400	3.854100	-11.570000	21.941830	0.000954	20.714337
207.048771	-3.005800	3.853500	-11.581000	21.933427	0.000955	20.739117
208.049384	-3.010300	3.853800	-11.598000	21.969586	0.000956	20.695177
209.052539	-2.981300	3.854600	-11.490000	21.963773	0.000955	20.711171
210.050781	-3.023900	3.851700	-11.645000	21.962721	0.000956	20.703005
211.050122	-2.990000	3.851200	-11.513000	21.976187	0.000957	20.701786
212.052354	-3.005500	3.851200	-11.574000	21.963452	0.000958	20.716540
213.052857	-3.001100	3.852400	-11.561000	21.959184	0.000958	20.713216
214.052605	-3.014000	3.850800	-11.605000	21.975639	0.000959	20.725895
215.052637	-2.997400	3.851600	-11.544000	21.969462	0.000960	20.710228
216.053361	-2.986300	3.852200	-11.503000	21.968614	0.000961	20.715543
217.051758	-2.995800	3.851900	-11.539000	21.990186	0.000963	20.709162
218.054830	-3.014600	3.849900	-11.605000	21.998805	0.000963	20.739128
219.051870	-2.980700	3.850400	-11.476000	21.988439	0.000962	20.706939
220.054051	-2.988500	3.851500	-11.510000	21.990561	0.000964	20.697682
221.056691	-3.009800	3.851100	-11.589000	22.013770	0.000963	20.704321
222.052353	-3.014900	3.850500	-11.607000	22.027438	0.000963	20.685285
223.053739	-2.991300	3.851100	-11.519000	22.008492	0.000967	20.703779
224.052600	-3.017000	3.849200	-11.611000	22.019183	0.000963	20.718275
225.056289	-2.996200	3.850300	-11.536000	22.019939	0.000965	20.700539
226.056624	-3.005100	3.848500	-11.564000	22.024128	0.000967	20.696197
227.055632	-2.990600	3.848800	-11.510000	22.009143	0.000968	20.712966
228.057564	-3.005400	3.849500	-11.568000	22.027019	0.000969	20.710946
229.056211	-2.995700	3.847600	-11.526000	22.033053	0.000969	20.709875
230.058059	-2.998000	3.848000	-11.536000	22.066158	0.000968	20.681848
231.054299	-3.006600	3.848000	-11.568000	22.065690	0.000968	20.701769
232.057362	-2.984100	3.847900	-11.481000	22.062473	0.000970	20.697600
233.057755	-2.998200	3.847700	-11.535000	22.090497	0.000971	20.704319
234.059101	-2.979100	3.847600	-11.462000	22.076628	0.000972	20.710823
235.061152	-3.013300	3.845500	-11.586000	22.072598	0.000972	20.684027
236.057231	-2.991100	3.846600	-11.505000	22.103660	0.000973	20.689994
237.059791	-3.021300	3.845500	-11.617000	22.112579	0.000974	20.703666
238.062846	-2.999000	3.845800	-11.533000	22.103057	0.000976	20.700772
239.061225	-2.988200	3.846000	-11.491000	22.096002	0.000976	20.690863
240.059834	-2.995900	3.846700	-11.522000	22.125120	0.000975	20.699152
241.068770	-2.986600	3.847100	-11.488000	22.134064	0.000977	20.700520
242.063562	-2.989100	3.845100	-11.492000	22.160038	0.000978	20.680529
243.063422	-3.041500	3.843300	-11.688000	22.146328	0.000977	20.676760
244.062969	-3.018500	3.844800	-11.604000	22.146826	0.000980	20.698124
245.067062	-3.008400	3.844200	-11.563000	22.123319	0.000980	20.705409
246.064456	-3.005800	3.843500	-11.552000	22.148622	0.000981	20.703241
247.064256	-3.003200	3.842900	-11.540000	22.168907	0.000982	20.714542
248.069122	-3.010000	3.842500	-11.566000	22.155050	0.000980	20.654670
249.063676	-3.003600	3.843100	-11.541000	22.152534	0.000982	20.712374
250.063855	-3.012600	3.841900	-11.573000	22.155050	0.000982	20.711574
251.066978	-2.982400	3.843200	-11.460000	22.155553	0.000983	20.687420
252.065393	-2.994100	3.842500	-11.503000	22.179523	0.000984	20.687711
253.068641	-2.980900	3.842800	-11.453000	22.180993	0.000983	20.684441
254.069067	-3.011000	3.841200	-11.564000	22.165641	0.000985	20.692779
255.068890	-2.990400	3.842800	-11.489000	22.165838	0.000985	20.686812
256.066783	-3.012600	3.841200	-11.570000	22.193854	0.000985	20.696844
257.070104	-3.002900	3.842200	-11.536000	22.190287	0.000985	20.685685
258.069379	-3.025600	3.840500	-11.618000	22.177722	0.000985	20.692546
259.068685	-2.972600	3.842200	-11.419000	22.213308	0.000988	20.693563
260.071664	-3.004600	3.839300	-11.534000	22.198253	0.000987	20.682755
261.070703	-3.007700	3.840200	-11.548000	22.210467	0.000989	20.675069
262.072034	-2.979000	3.840500	-11.440000	22.231200	0.000991	20.694881
263.074358	-3.021500	3.838700	-11.596000	22.240745	0.000990	20.674090
264.073839	-3.010400	3.838200	-11.553000	22.226784	0.000990	20.697099
265.069656	-2.982000	3.840700	-11.452000	22.244405	0.000992	20.691507
266.074199	-2.993800	3.838300	-11.489000	22.234036	0.000992	20.666424
267.076818	-3.002500	3.838900	-11.525000	22.249011	0.000993	20.674781
268.074158	-2.998200	3.838800	-11.509000	22.234479	0.000995	20.704803
269.076931	-3.014600	3.838100	-11.570000	22.235371	0.000993	20.715655
270.073147	-3.005600	3.837000	-11.531000	22.241399	0.000993	20.663839
271.075317	-3.007700	3.837200	-11.541000	22.272555	0.000992	20.698357
272.078001	-2.984500	3.838600	-11.455000	22.253780	0.000995	20.683350
