LabVIEW Measurement	
Writer_Version	2
Reader_Version	2
Separator	Tab
Decimal_Separator	.
Multi_Headings	No
X_Columns	One
Time_Pref	Absolute
Operator	admin
Description	Clolumns are: time, Current, Voltage, Power, Battery Temp, and Chamber Temp
Date	2024/08/16
Time	13:06:06.104549407958984375
***End_of_Header***	
	
Channels	6						
Samples	1	1	1	1	1	1	
Date	2024/08/26	2024/08/26	2024/08/26	2024/08/26	2024/08/26	2024/08/26	
Time	08:20:37.45336151123046875	08:20:37.4605798721313476563	08:20:37.4666590690612792969	08:20:37.4370913505554199219	08:20:37.4370913505554199219	08:20:37.4370913505554199219	
X_Dimension	Time	Time	Time	Time	Time	Time	
X0	0.0000000000000000E+0	0.0000000000000000E+0	0.0000000000000000E+0	0.0000000000000000E+0	0.0000000000000000E+0	0.0000000000000000E+0	
Delta_X	1.000000	1.000000	1.000000	1.000000	1.000000	1.000000	
***End_of_Header***							
X_Value	Untitled	Untitled 1	Untitled 2	Untitled 3	Untitled 4	Untitled 5	Comment
0.000000	-0.000779	4.107800	-0.003278	20.976104	0.000965	20.828656
1.000407	-2.997000	3.949000	-11.834000	20.981543	0.000963	20.825561
2.000675	-2.999500	3.941500	-11.820000	20.993969	0.000964	20.824713
2.998006	-2.990000	3.937200	-11.770000	20.979822	0.000965	20.839012
4.003181	-2.996900	3.932600	-11.784000	20.973409	0.000963	20.817900
4.998922	-3.013400	3.927800	-11.835000	20.961133	0.000962	20.834545
5.998650	-2.995800	3.927300	-11.765000	20.976953	0.000962	20.802952
7.000001	-3.008400	3.923800	-11.803000	20.981918	0.000960	20.820720
8.000673	-3.001300	3.921300	-11.768000	20.981095	0.000958	20.819897
9.000277	-2.990500	3.920500	-11.723000	20.981743	0.000960	20.808218
10.001682	-3.016600	3.916400	-11.813000	20.981419	0.000957	20.813109
11.001755	-2.995100	3.915600	-11.727000	20.992348	0.000957	20.827358
12.001206	-2.988500	3.915500	-11.700000	21.010961	0.000957	20.818474
13.001121	-2.995600	3.913500	-11.722000	21.010487	0.000958	20.824638
14.000598	-2.997200	3.911000	-11.721000	20.991549	0.000955	20.803801
15.000656	-3.007900	3.909500	-11.758000	21.019744	0.000954	20.832948
16.004802	-3.003200	3.909200	-11.740000	21.010337	0.000955	20.812635
17.001157	-2.989100	3.909400	-11.684000	21.038980	0.000953	20.827058
18.002991	-2.986500	3.907400	-11.669000	21.015377	0.000954	20.799184
19.002028	-3.004800	3.905200	-11.734000	21.019819	0.000951	20.813109
20.001335	-2.997000	3.905900	-11.705000	21.028077	0.000952	20.815205
21.001781	-2.991700	3.903600	-11.678000	21.021216	0.000950	20.806920
22.004256	-2.994800	3.902900	-11.687000	21.016101	0.000951	20.824563
23.001961	-2.968000	3.903700	-11.585000	21.029699	0.000948	20.804499
24.002734	-2.998600	3.901300	-11.697000	21.029125	0.000948	20.792071
25.002731	-2.995400	3.901200	-11.685000	21.065702	0.000950	20.800207
26.001740	-3.000400	3.900300	-11.702000	21.051904	0.000948	20.812485
27.001860	-2.997700	3.899600	-11.689000	21.049334	0.000949	20.815130
28.005262	-3.008100	3.896800	-11.721000	21.057019	0.000948	20.806695
29.002685	-3.003400	3.898800	-11.708000	21.067972	0.000947	20.819547
30.002965	-2.987300	3.897600	-11.641000	21.068795	0.000945	20.819422
31.004326	-3.026400	3.895000	-11.787000	21.063082	0.000946	20.815604
32.001382	-3.006700	3.895100	-11.710000	21.073860	0.000945	20.816901
33.004218	-3.018400	3.894900	-11.755000	21.081819	0.000945	20.812534
34.004812	-3.008500	3.893600	-11.713000	21.083964	0.000942	20.814680
35.003710	-3.013500	3.893600	-11.732000	21.086134	0.000945	20.798359
36.003870	-3.006400	3.893800	-11.706000	21.117745	0.000942	20.807693
37.006632	-2.968100	3.894700	-11.559000	21.106069	0.000945	20.805022
38.005686	-3.005400	3.891700	-11.695000	21.129096	0.000943	20.780167
39.005332	-2.998000	3.892000	-11.666000	21.105545	0.000944	20.795489
40.006565	-2.987900	3.892300	-11.628000	21.135757	0.000942	20.810537
41.006571	-2.999100	3.891400	-11.670000	21.140946	0.000941	20.804348
42.006870	-3.009600	3.890700	-11.710000	21.131715	0.000939	20.808865
43.006942	-2.990900	3.890100	-11.634000	21.135283	0.000943	20.798683
44.007054	-3.001100	3.890600	-11.674000	21.162426	0.000941	20.794540
45.007664	-2.987100	3.890700	-11.621000	21.151948	0.000940	20.792120
46.007801	-3.005800	3.888200	-11.686000	21.155590	0.000941	20.810936
47.008696	-3.013200	3.889200	-11.718000	21.179041	0.000940	20.790298
48.008727	-3.013400	3.887200	-11.712000	21.161827	0.000940	20.790622
49.009647	-2.980500	3.888100	-11.588000	21.186151	0.000940	20.806419
50.008564	-2.979100	3.888900	-11.585000	21.176521	0.000939	20.810062
51.010203	-3.020100	3.886100	-11.735000	21.172754	0.000937	20.808665
52.011872	-2.998200	3.887100	-11.653000	21.183755	0.000939	20.795962
53.008372	-3.009100	3.885600	-11.691000	21.176645	0.000938	20.789324
54.009737	-3.008800	3.886700	-11.693000	21.197875	0.000941	20.802500
55.010070	-3.003700	3.885100	-11.669000	21.194158	0.000938	20.809213
56.010944	-3.012000	3.886200	-11.704000	21.214914	0.000936	20.802001
57.009912	-3.043200	3.883400	-11.816000	21.215637	0.000938	20.792768
58.012989	-3.007400	3.883500	-11.678000	21.202291	0.000936	20.796012
59.013093	-3.000300	3.883700	-11.651000	21.207180	0.000937	20.767238
60.013838	-2.991900	3.884500	-11.620000	21.228684	0.000936	20.791595
61.013041	-3.004600	3.883700	-11.668000	21.219529	0.000936	20.791445
62.014275	-3.000900	3.881700	-11.647000	21.237889	0.000938	20.796536
63.014650	-2.994900	3.882700	-11.627000	21.234496	0.000937	20.794090
64.015291	-2.978000	3.883100	-11.562000	21.249738	0.000937	20.800329
65.014191	-3.006400	3.882600	-11.671000	21.264406	0.000937	20.779441
66.015361	-2.984000	3.881400	-11.581000	21.258794	0.000935	20.777620
67.013708	-3.007800	3.881100	-11.673000	21.257995	0.000936	20.804322
68.016013	-3.000400	3.881900	-11.645000	21.287730	0.000936	20.782386
69.015886	-2.993800	3.881400	-11.619000	21.288528	0.000935	20.807841
70.015265	-3.014900	3.882100	-11.703000	21.282816	0.000936	20.789798
71.016306	-2.999500	3.880400	-11.638000	21.293742	0.000935	20.790297
72.016891	-3.017500	3.880900	-11.710000	21.310729	0.000935	20.801128
73.018937	-3.014000	3.879600	-11.693000	21.298107	0.000935	20.775698
74.016901	-3.001900	3.880500	-11.647000	21.299753	0.000934	20.788725
75.017420	-2.970700	3.880100	-11.525000	21.317439	0.000935	20.775124
76.018294	-3.008100	3.879000	-11.667000	21.324922	0.000932	20.794465
77.017741	-2.979700	3.880500	-11.561000	21.318761	0.000934	20.778343
78.017760	-3.004200	3.877800	-11.648000	21.324673	0.000932	20.792318
79.019192	-3.015800	3.878900	-11.697000	21.309357	0.000933	20.784108
80.019099	-3.020800	3.877300	-11.711000	21.338741	0.000932	20.789324
81.018620	-2.981200	3.880300	-11.566000	21.333278	0.000934	20.790022
82.019915	-3.010800	3.877700	-11.674000	21.337843	0.000933	20.784158
83.020200	-3.009600	3.876900	-11.667000	21.329337	0.000934	20.772329
84.021994	-2.986700	3.878700	-11.583000	21.383614	0.000934	20.771156
85.022663	-3.001700	3.877800	-11.639000	21.375608	0.000932	20.767412
86.020585	-3.000600	3.875900	-11.629000	21.397707	0.000932	20.751116
87.023055	-2.992600	3.877000	-11.602000	21.377827	0.000934	20.783384
88.024934	-2.994900	3.876700	-11.609000	21.418982	0.000931	20.810336
89.023227	-2.976400	3.877800	-11.541000	21.421277	0.000933	20.793192
90.022563	-3.022200	3.875300	-11.710000	21.409704	0.000931	20.790147
91.023622	-3.010500	3.875100	-11.665000	21.395337	0.000931	20.781937
92.025129	-2.993300	3.874100	-11.595000	21.406911	0.000932	20.792094
93.023343	-3.030200	3.874400	-11.739000	21.433424	0.000932	20.775473
94.022643	-3.012100	3.875500	-11.672000	21.414194	0.000933	20.760974
95.023910	-3.006600	3.875100	-11.650000	21.463154	0.000931	20.786728
96.025054	-3.020200	3.873700	-11.699000	21.440158	0.000932	20.777470
97.026598	-3.005400	3.873200	-11.638000	21.445845	0.000931	20.795488
98.025544	-3.009000	3.874100	-11.657000	21.464227	0.000932	20.778318
99.025451	-3.004100	3.873300	-11.634000	21.497548	0.000932	20.778942
100.026243	-3.009300	3.874200	-11.658000	21.475326	0.000933	20.775199
101.025006	-3.003900	3.873100	-11.634000	21.482708	0.000931	20.793966
102.026244	-3.018000	3.872100	-11.685000	21.499768	0.000932	20.793018
103.027261	-3.004900	3.872200	-11.633000	21.499693	0.000932	20.781089
104.026588	-3.003700	3.873100	-11.632000	21.495677	0.000932	20.783235
105.028294	-2.988100	3.872700	-11.571000	21.510267	0.000935	20.776971
106.026510	-3.002700	3.872000	-11.625000	21.490939	0.000935	20.791770
107.027830	-3.005600	3.872200	-11.638000	21.510118	0.000931	20.788676
108.033967	-2.989400	3.873200	-11.578000	21.533661	0.000933	20.770508
109.030038	-2.999800	3.872600	-11.615000	21.530868	0.000933	20.788102
110.029692	-2.974600	3.873100	-11.520000	21.541692	0.000933	20.780914
111.032232	-2.983500	3.872200	-11.552000	21.564237	0.000932	20.789724
112.031012	-3.014100	3.869400	-11.661000	21.552316	0.000931	20.774476
113.031427	-2.986600	3.871700	-11.562000	21.543886	0.000934	20.780266
114.032321	-2.965900	3.871800	-11.482000	21.577729	0.000934	20.780939
115.031289	-3.001800	3.869200	-11.613000	21.587280	0.000932	20.785756
116.032506	-2.999600	3.870100	-11.606000	21.580647	0.000933	20.792868
117.036706	-2.971000	3.871600	-11.501000	21.616857	0.000933	20.778369
118.031726	-3.004100	3.869200	-11.622000	21.598876	0.000934	20.767962
119.030883	-3.010200	3.868100	-11.642000	21.615710	0.000934	20.779592
120.031684	-3.000300	3.869800	-11.609000	21.630198	0.000933	20.770383
121.033794	-2.992600	3.869500	-11.577000	21.618578	0.000934	20.791945
122.033499	-3.013500	3.868400	-11.656000	21.641869	0.000936	20.803400
123.033606	-3.011000	3.868400	-11.647000	21.631645	0.000932	20.773728
124.045806	-3.023400	3.867000	-11.690000	21.618553	0.000934	20.765367
125.033062	-3.015200	3.868400	-11.664000	21.619850	0.000936	20.781838
126.036373	-2.993200	3.868200	-11.577000	21.630473	0.000935	20.780616
127.035542	-2.979200	3.869700	-11.527000	21.634039	0.000936	20.798409
128.035611	-3.002700	3.868200	-11.614000	21.628852	0.000935	20.778045
129.036246	-2.996600	3.868500	-11.592000	21.637780	0.000932	20.788402
130.037066	-3.005800	3.868800	-11.628000	21.634364	0.000936	20.784983
131.038818	-3.003200	3.867800	-11.614000	21.654912	0.000936	20.792744
132.037682	-2.999700	3.868000	-11.602000	21.652493	0.000936	20.765668
133.037155	-2.985000	3.867700	-11.544000	21.658852	0.000937	20.770135
134.036231	-2.978300	3.867400	-11.517000	21.651246	0.000936	20.775800
135.042214	-3.003600	3.865600	-11.609000	21.679200	0.000937	20.763946
136.037239	-2.982900	3.867200	-11.534000	21.705857	0.000938	20.768812
137.039688	-3.001800	3.868000	-11.607000	21.708301	0.000936	20.791647
138.041117	-2.994200	3.866300	-11.576000	21.698876	0.000937	20.785059
139.040986	-2.990000	3.866100	-11.558000	21.707279	0.000938	20.780667
140.040828	-2.981100	3.867600	-11.529000	21.722490	0.000935	20.770759
141.040778	-2.992800	3.866500	-11.570000	21.748622	0.000938	20.760877
142.039914	-2.982900	3.866000	-11.531000	21.737227	0.000938	20.798311
143.041132	-2.979200	3.864800	-11.513000	21.745954	0.000936	20.790450
144.043136	-2.994500	3.864900	-11.573000	21.751066	0.000937	20.780867
145.043741	-2.989300	3.865400	-11.554000	21.762910	0.000940	20.787505
146.043378	-2.988000	3.864000	-11.544000	21.760741	0.000938	20.795765
147.041259	-2.992300	3.864500	-11.563000	21.760616	0.000937	20.770036
148.043813	-2.987000	3.863500	-11.540000	21.759320	0.000940	20.769213
149.045130	-2.988900	3.865100	-11.552000	21.761489	0.000939	20.787031
150.043741	-2.979200	3.863900	-11.509000	21.779766	0.000938	20.765494
151.044839	-2.996500	3.863000	-11.574000	21.764332	0.000939	20.797463
152.047336	-2.999400	3.864400	-11.590000	21.785251	0.000941	20.788054
153.048456	-3.006800	3.864400	-11.619000	21.795824	0.000940	20.786782
154.046713	-2.992400	3.862600	-11.558000	21.800013	0.000942	20.779595
155.047792	-2.997800	3.862000	-11.577000	21.776051	0.000940	20.792122
156.048258	-2.987400	3.863100	-11.540000	21.784105	0.000943	20.801605
157.047338	-2.985600	3.864300	-11.536000	21.766676	0.000941	20.801231
158.048922	-2.975500	3.863200	-11.493000	21.771563	0.000941	20.806122
159.048098	-2.985500	3.862900	-11.531000	21.800162	0.000943	20.788753
160.048203	-3.004700	3.860900	-11.600000	21.805298	0.000942	20.774454
161.052691	-3.006500	3.862000	-11.610000	21.806695	0.000944	20.798137
162.050138	-3.019500	3.861000	-11.657000	21.817217	0.000942	20.779744
163.050079	-3.005600	3.862200	-11.608000	21.814948	0.000944	20.778422
164.056694	-3.003200	3.861700	-11.596000	21.838534	0.000944	20.785908
165.052495	-3.003800	3.861600	-11.599000	21.838011	0.000943	20.800557
166.050535	-3.019600	3.859200	-11.653000	21.840878	0.000946	20.778771
167.055015	-3.007100	3.862200	-11.612000	21.837711	0.000944	20.807370
168.056827	-3.016000	3.860000	-11.641000	21.878351	0.000947	20.804899
169.051229	-3.016200	3.859900	-11.641000	21.872667	0.000947	20.784985
170.056519	-3.011500	3.858700	-11.619000	21.914303	0.000943	20.795840
171.050969	-3.012300	3.859600	-11.624000	21.885332	0.000945	20.795291
172.052244	-2.991300	3.860200	-11.546000	21.904480	0.000946	20.807819
173.053726	-2.989400	3.862200	-11.543000	21.908194	0.000945	20.800632
174.055379	-3.007000	3.858000	-11.600000	21.927566	0.000947	20.792047
175.052811	-2.999500	3.857800	-11.570000	21.948807	0.000946	20.791024
176.056648	-2.997700	3.858300	-11.564000	21.948158	0.000948	20.805073
177.055971	-3.014900	3.858200	-11.632000	21.945416	0.000947	20.793793
178.051585	-2.999300	3.857800	-11.568000	21.946737	0.000947	20.814556
179.056313	-2.988700	3.859200	-11.533000	21.944818	0.000946	20.797462
180.054304	-3.003900	3.857400	-11.586000	21.957607	0.000947	20.794143
181.053319	-2.984100	3.858100	-11.512000	21.934546	0.000948	20.813258
182.057449	-2.987200	3.858700	-11.526000	21.955239	0.000949	20.817850
183.056222	-2.988600	3.857100	-11.526000	21.942374	0.000950	20.801180
184.053540	-2.987700	3.857400	-11.523000	21.956909	0.000949	20.792495
185.055583	-3.005900	3.856300	-11.590000	21.974509	0.000947	20.791622
186.056202	-3.005600	3.855100	-11.585000	21.971742	0.000948	20.809714
187.052005	-3.000100	3.856700	-11.569000	21.964512	0.000949	20.809590
188.058123	-2.981500	3.856900	-11.499000	21.983135	0.000949	20.810213
189.056760	-3.019700	3.856400	-11.644000	22.000312	0.000949	20.804649
190.052957	-2.995900	3.855600	-11.550000	22.004175	0.000949	20.811361
191.058296	-2.992600	3.856300	-11.539000	22.027783	0.000952	20.811286
192.059968	-2.979100	3.857400	-11.489000	22.029902	0.000953	20.819097
193.054708	-3.013100	3.853500	-11.609000	22.049172	0.000952	20.809939
194.059041	-2.994600	3.855100	-11.543000	22.066272	0.000951	20.824687
195.059223	-2.993200	3.855900	-11.539000	22.056750	0.000953	20.826534
196.055785	-2.995900	3.854200	-11.546000	22.086140	0.000953	20.802852
197.056760	-2.993900	3.854600	-11.539000	22.083946	0.000952	20.818673
198.054168	-3.011600	3.853700	-11.604000	22.103689	0.000952	20.802402
199.055333	-3.028000	3.852300	-11.663000	22.073975	0.000953	20.809640
200.056788	-2.981100	3.854700	-11.490000	22.093369	0.000954	20.833796
201.055876	-3.014000	3.853400	-11.613000	22.100025	0.000953	20.824812
202.055124	-3.024500	3.853800	-11.654000	22.119941	0.000956	20.825311
203.057005	-2.998000	3.852800	-11.550000	22.112688	0.000956	20.827058
204.055122	-3.018500	3.852000	-11.624000	22.136218	0.000957	20.834969
205.055532	-3.000300	3.853900	-11.561000	22.142425	0.000957	20.818424
206.057974	-2.999000	3.853200	-11.555000	22.133826	0.000959	20.834470
207.057040	-3.012200	3.852100	-11.603000	22.145616	0.000957	20.836791
208.057226	-2.993700	3.852900	-11.534000	22.146314	0.000959	20.823266
209.061152	-2.992200	3.853600	-11.530000	22.138611	0.000958	20.820296
210.058766	-2.984400	3.853400	-11.499000	22.172960	0.000960	20.830028
211.059307	-3.005400	3.852000	-11.576000	22.182855	0.000961	20.810538
212.061487	-3.023300	3.850900	-11.641000	22.174779	0.000961	20.857927
213.061083	-3.020100	3.852200	-11.633000	22.188837	0.000960	20.820795
214.058949	-2.993900	3.851700	-11.528000	22.199754	0.000960	20.826984
215.061346	-3.004300	3.852800	-11.574000	22.212840	0.000962	20.837714
216.059133	-3.007200	3.850800	-11.579000	22.175926	0.000962	20.833472
217.060926	-3.004200	3.849900	-11.564000	22.203119	0.000962	20.808068
218.064089	-2.995100	3.850300	-11.530000	22.208627	0.000963	20.837764
219.060479	-3.002100	3.850000	-11.557000	22.207207	0.000962	20.821643
220.059910	-3.004600	3.850300	-11.568000	22.213961	0.000964	20.834570
221.063225	-3.025500	3.848400	-11.641000	22.218996	0.000963	20.843878
222.059680	-3.001800	3.850300	-11.557000	22.232480	0.000963	20.833671
223.060372	-2.984000	3.850600	-11.490000	22.234374	0.000964	20.855956
224.059943	-3.007900	3.849000	-11.577000	22.247061	0.000967	20.830727
225.060102	-2.996900	3.851400	-11.541000	22.246936	0.000965	20.832498
226.062439	-3.005300	3.848600	-11.565000	22.252668	0.000965	20.833496
227.061755	-2.985800	3.848300	-11.489000	22.245565	0.000967	20.839660
228.064167	-3.009300	3.847100	-11.576000	22.246985	0.000966	20.817375
229.062302	-2.985300	3.848800	-11.489000	22.231956	0.000968	20.827457
230.060910	-2.978200	3.848300	-11.459000	22.237365	0.000968	20.827657
231.064285	-2.982400	3.847500	-11.474000	22.238337	0.000969	20.846173
232.065626	-3.000300	3.847800	-11.543000	22.233526	0.000970	20.825236
233.061286	-2.990900	3.846500	-11.504000	22.239309	0.000970	20.822017
234.065291	-2.998900	3.848200	-11.539000	22.238835	0.000969	20.828655
235.061495	-3.002000	3.847000	-11.547000	22.264133	0.000970	20.834544
236.061608	-3.022700	3.846400	-11.625000	22.264232	0.000972	20.852187
237.065117	-3.027200	3.847000	-11.644000	22.279386	0.000972	20.841756
238.064445	-3.028600	3.845900	-11.647000	22.285342	0.000971	20.851039
239.061493	-3.004600	3.846600	-11.556000	22.307648	0.000974	20.847295
240.066045	-3.018800	3.845700	-11.609000	22.307897	0.000975	20.860346
241.063586	-3.001900	3.845400	-11.542000	22.320956	0.000974	20.837388
242.062434	-3.010700	3.844000	-11.572000	22.342240	0.000974	20.834044
243.066327	-3.002700	3.844500	-11.543000	22.352109	0.000973	20.843452
244.062434	-2.976400	3.846600	-11.449000	22.347698	0.000974	20.856104
245.063207	-3.001000	3.845100	-11.538000	22.348619	0.000975	20.865087
246.069156	-2.994700	3.845000	-11.513000	22.366513	0.000974	20.854082
247.067259	-3.003400	3.844000	-11.543000	22.374936	0.000974	20.845922
248.064323	-2.997700	3.845500	-11.527000	22.389365	0.000976	20.863689
249.069483	-2.991500	3.843600	-11.498000	22.381042	0.000977	20.849665
250.067092	-3.012600	3.844200	-11.579000	22.370351	0.000975	20.844175
251.068440	-2.997200	3.843500	-11.518000	22.361753	0.000976	20.859272
252.071026	-3.007500	3.843900	-11.559000	22.371821	0.000976	20.852285
253.072078	-2.977200	3.845100	-11.447000	22.384181	0.000977	20.847594
254.066093	-3.010400	3.842400	-11.565000	22.400779	0.000980	20.845248
255.069910	-2.998500	3.843200	-11.524000	22.404118	0.000979	20.862816
256.067590	-2.989900	3.844300	-11.493000	22.420889	0.000979	20.874868
257.066782	-3.000000	3.841800	-11.524000	22.426297	0.000979	20.854206
258.076028	-3.004000	3.843400	-11.543000	22.439504	0.000982	20.864587
259.067585	-3.013700	3.842100	-11.578000	22.473569	0.000982	20.867881
260.067395	-3.001200	3.841800	-11.529000	22.464523	0.000980	20.884899
261.070363	-3.018200	3.841100	-11.592000	22.470579	0.000982	20.866783
262.067070	-3.018100	3.840200	-11.588000	22.464398	0.000982	20.875766
263.066246	-3.003600	3.841800	-11.539000	22.449846	0.000984	20.859771
264.068578	-3.005300	3.840800	-11.542000	22.489168	0.000983	20.871174
265.069648	-3.000400	3.842100	-11.526000	22.449472	0.000984	20.881680
266.066946	-2.995900	3.841200	-11.507000	22.467837	0.000985	20.865460
267.073273	-3.001900	3.839800	-11.526000	22.468310	0.000985	20.862141
268.067362	-2.988600	3.839900	-11.475000	22.458193	0.000985	20.856751
269.068300	-3.014300	3.839500	-11.571000	22.486601	0.000985	20.859121
270.071545	-3.014800	3.839800	-11.575000	22.502050	0.000986	20.886920
271.069874	-2.996500	3.839500	-11.504000	22.486127	0.000987	20.881405
272.071418	-3.005700	3.839900	-11.541000	22.491310	0.000988	20.907456
