LabVIEW Measurement	
Writer_Version	2
Reader_Version	2
Separator	Tab
Decimal_Separator	.
Multi_Headings	No
X_Columns	One
Time_Pref	Absolute
Operator	admin
Description	Clolumns are: time, Current, Voltage, Power, Battery Temp, and Chamber Temp
Date	2024/08/16
Time	13:06:06.104549407958984375
***End_of_Header***	
	
Channels	6						
Samples	1	1	1	1	1	1	
Date	2024/08/28	2024/08/28	2024/08/28	2024/08/28	2024/08/28	2024/08/28	
Time	14:51:26.9301400184631347656	14:51:26.9371342658996582031	14:51:26.94406890869140625	14:51:26.8989071846008300781	14:51:26.8989071846008300781	14:51:26.8989071846008300781	
X_Dimension	Time	Time	Time	Time	Time	Time	
X0	0.0000000000000000E+0	0.0000000000000000E+0	0.0000000000000000E+0	0.0000000000000000E+0	0.0000000000000000E+0	0.0000000000000000E+0	
Delta_X	1.000000	1.000000	1.000000	1.000000	1.000000	1.000000	
***End_of_Header***							
X_Value	Untitled	Untitled 1	Untitled 2	Untitled 3	Untitled 4	Untitled 5	Comment
0.000000	0.009531	4.106700	0.039120	21.002280	0.000950	20.693620
1.005357	-2.999900	3.943100	-11.828000	20.992079	0.000949	20.669190
2.004122	-3.009300	3.937400	-11.848000	21.010936	0.000947	20.699907
3.010151	-3.008900	3.931400	-11.828000	20.994270	0.000944	20.684659
4.010145	-3.013600	3.929100	-11.839000	21.001062	0.000945	20.702833
5.001765	-2.979100	3.927200	-11.699000	21.009619	0.000945	20.713764
5.995622	-3.020600	3.921400	-11.844000	20.986987	0.000944	20.699187
7.016274	-3.005700	3.919500	-11.780000	21.005451	0.000941	20.717656
8.003879	-3.009000	3.917400	-11.787000	21.003179	0.000941	20.729134
9.017134	-3.007500	3.916300	-11.777000	21.001609	0.000940	20.712865
10.026354	-3.000900	3.914000	-11.744000	21.005974	0.000942	20.716282
11.009821	-3.012500	3.911500	-11.783000	21.007421	0.000940	20.704926
12.012554	-2.991600	3.910600	-11.699000	20.999541	0.000940	20.706054
13.006555	-3.001200	3.908400	-11.728000	21.015414	0.000939	20.685418
14.017679	-2.977300	3.908800	-11.636000	21.029031	0.000937	20.720378
15.017697	-2.984900	3.906000	-11.658000	21.038014	0.000938	20.713715
16.014402	-3.004100	3.905300	-11.730000	21.028484	0.000936	20.712717
17.004996	-2.988100	3.904100	-11.665000	21.041209	0.000936	20.717860
18.009568	-2.992700	3.904600	-11.683000	21.044054	0.000935	20.721653
19.007866	-3.001100	3.901900	-11.709000	21.052538	0.000934	20.713069
20.011595	-3.006300	3.900600	-11.725000	21.054237	0.000934	20.712872
21.010869	-2.994200	3.900800	-11.678000	21.061291	0.000933	20.733206
22.018674	-3.013700	3.899200	-11.749000	21.079330	0.000934	20.719005
23.008818	-2.985400	3.898800	-11.638000	21.085598	0.000931	20.731913
24.005750	-3.001900	3.898400	-11.700000	21.078136	0.000932	20.725398
25.007897	-2.987100	3.898200	-11.643000	21.083056	0.000931	20.693806
26.013221	-2.990800	3.897300	-11.655000	21.104559	0.000930	20.714843
27.018968	-2.997200	3.896900	-11.679000	21.107280	0.000932	20.726100
28.016922	-2.994800	3.896100	-11.667000	21.121378	0.000932	20.735935
29.014620	-2.996500	3.895100	-11.671000	21.093983	0.000931	20.716592
30.009719	-2.973300	3.894100	-11.577000	21.096532	0.000930	20.722936
31.026066	-3.014200	3.893000	-11.733000	21.122825	0.000929	20.729321
32.008141	-2.998000	3.894700	-11.674000	21.134602	0.000929	20.721661
33.018226	-2.976400	3.892700	-11.585000	21.132558	0.000927	20.740006
34.014627	-3.013900	3.892100	-11.729000	21.138524	0.000928	20.720368
35.022747	-2.997300	3.891000	-11.661000	21.142488	0.000926	20.721963
36.026110	-3.013000	3.891900	-11.725000	21.135149	0.000928	20.725054
37.014443	-2.985300	3.890700	-11.615000	21.143281	0.000929	20.732714
38.017286	-2.978000	3.889800	-11.584000	21.145472	0.000928	20.735854
39.011213	-2.999700	3.890100	-11.668000	21.145079	0.000927	20.728348
40.013666	-2.995700	3.888700	-11.649000	21.172466	0.000925	20.740097
41.018351	-3.005900	3.889700	-11.690000	21.158769	0.000926	20.733982
42.009606	-2.995700	3.887200	-11.644000	21.178677	0.000926	20.734930
43.012856	-3.008300	3.885700	-11.689000	21.183441	0.000927	20.734481
44.026150	-2.990400	3.888100	-11.626000	21.200449	0.000924	20.731579
45.019580	-2.998000	3.886400	-11.651000	21.227989	0.000927	20.726886
46.025239	-2.992300	3.885600	-11.625000	21.213990	0.000923	20.743230
47.029255	-3.002100	3.886300	-11.666000	21.231658	0.000924	20.722496
48.015666	-2.992300	3.886200	-11.628000	21.213573	0.000923	20.756563
49.018450	-3.016500	3.885200	-11.718000	21.223445	0.000923	20.731351
50.016713	-2.973100	3.886500	-11.552000	21.238637	0.000924	20.736117
51.013355	-2.968300	3.884800	-11.530000	21.240108	0.000924	20.730950
52.020520	-3.018600	3.882700	-11.719000	21.240354	0.000923	20.757275
53.018701	-3.005800	3.881500	-11.665000	21.258561	0.000923	20.745144
54.030602	-2.984600	3.884300	-11.592000	21.257319	0.000921	20.746745
55.020815	-2.986200	3.882500	-11.593000	21.264305	0.000923	20.749468
56.022054	-2.993700	3.882500	-11.622000	21.271162	0.000920	20.750163
57.019870	-2.988300	3.881300	-11.595000	21.278851	0.000922	20.759752
58.019152	-2.992600	3.882200	-11.617000	21.296281	0.000921	20.741154
59.031833	-2.983400	3.881400	-11.579000	21.296411	0.000921	20.753138
60.025918	-3.001400	3.882100	-11.650000	21.310328	0.000922	20.744301
61.025702	-3.005300	3.881100	-11.663000	21.324325	0.000921	20.766840
62.033385	-3.009500	3.880300	-11.677000	21.323075	0.000921	20.776021
63.038054	-2.982800	3.879700	-11.571000	21.327660	0.000921	20.745519
64.022497	-2.995800	3.879900	-11.622000	21.307361	0.000920	20.749394
65.028292	-2.988300	3.880800	-11.595000	21.350816	0.000920	20.771058
66.019515	-2.991600	3.879900	-11.605000	21.348415	0.000921	20.751585
67.018545	-3.014200	3.878400	-11.689000	21.355703	0.000921	20.751291
68.029926	-3.005400	3.879600	-11.658000	21.346845	0.000920	20.751912
69.020184	-3.003000	3.877900	-11.644000	21.361955	0.000921	20.755649
70.022437	-2.975700	3.878800	-11.541000	21.354951	0.000919	20.771402
71.019410	-2.991900	3.878400	-11.602000	21.372388	0.000919	20.771778
72.029705	-2.999700	3.876800	-11.628000	21.354558	0.000919	20.761526
73.024372	-3.001000	3.877900	-11.637000	21.387121	0.000919	20.761862
74.022306	-3.011600	3.877400	-11.676000	21.400121	0.000919	20.770601
75.019621	-2.976900	3.879900	-11.549000	21.397383	0.000920	20.756008
76.031006	-3.028300	3.875500	-11.735000	21.401314	0.000920	20.762786
77.031414	-3.011100	3.875100	-11.667000	21.432167	0.000920	20.784173
78.019300	-3.021700	3.876100	-11.711000	21.412835	0.000919	20.762459
79.027250	-3.019000	3.876000	-11.700000	21.427477	0.000919	20.783748
80.033898	-3.008300	3.874400	-11.655000	21.442862	0.000919	20.760260
81.027086	-3.010900	3.874900	-11.667000	21.418424	0.000919	20.787966
82.023345	-3.014000	3.873800	-11.675000	21.427428	0.000920	20.763784
83.030017	-3.005100	3.874700	-11.643000	21.451596	0.000920	20.768999
84.026708	-3.005100	3.875300	-11.645000	21.462667	0.000920	20.764904
85.018686	-2.996700	3.873600	-11.605000	21.464293	0.000920	20.774117
86.023271	-3.010600	3.872600	-11.656000	21.477308	0.000917	20.763906
87.034962	-2.987700	3.875300	-11.577000	21.493673	0.000917	20.789764
88.022216	-3.003500	3.872900	-11.630000	21.512480	0.000918	20.774918
89.045450	-2.997300	3.873300	-11.606000	21.510160	0.000919	20.779709
90.023201	-2.997700	3.874400	-11.612000	21.520732	0.000918	20.779856
91.023309	-3.012600	3.872300	-11.665000	21.512726	0.000918	20.773267
92.028219	-3.011900	3.872400	-11.663000	21.523804	0.000919	20.763489
93.027557	-2.977900	3.874200	-11.536000	21.506222	0.000919	20.789519
94.026386	-3.002600	3.870800	-11.622000	21.524923	0.000920	20.786895
95.023915	-2.986800	3.873300	-11.568000	21.535625	0.000920	20.778637
96.019517	-3.006100	3.872200	-11.638000	21.549163	0.000920	20.798822
97.021878	-2.994600	3.870600	-11.590000	21.585853	0.000920	20.765835
98.030793	-3.001400	3.872200	-11.621000	21.564898	0.000918	20.778058
99.026655	-2.997300	3.871900	-11.603000	21.579619	0.000919	20.773822
100.023234	-2.986400	3.872300	-11.564000	21.593679	0.000920	20.779357
101.038460	-3.015000	3.869600	-11.666000	21.557489	0.000918	20.789609
102.034401	-2.998300	3.869600	-11.601000	21.587790	0.000920	20.782472
103.034971	-2.968700	3.871900	-11.492000	21.596269	0.000921	20.781001
104.039530	-2.996100	3.869700	-11.593000	21.627745	0.000919	20.779782
105.024732	-3.005000	3.870500	-11.629000	21.619796	0.000922	20.804544
106.030245	-3.000500	3.869800	-11.611000	21.630588	0.000920	20.771247
107.025723	-2.999000	3.869500	-11.603000	21.635424	0.000920	20.787467
108.032508	-2.998900	3.870300	-11.605000	21.642932	0.000919	20.790238
109.030470	-3.009900	3.870200	-11.647000	21.649958	0.000920	20.802485
110.044759	-3.012400	3.869200	-11.655000	21.657089	0.000921	20.775009
111.038132	-3.028900	3.868700	-11.717000	21.664874	0.000919	20.805085
112.044555	-3.005700	3.869500	-11.629000	21.662178	0.000921	20.808551
113.029553	-2.986300	3.868700	-11.553000	21.656142	0.000920	20.791604
114.038922	-3.010400	3.868200	-11.644000	21.679660	0.000922	20.802812
115.047043	-2.999100	3.867600	-11.599000	21.678884	0.000922	20.801087
116.033720	-3.007700	3.868000	-11.633000	21.699404	0.000921	20.789855
117.040390	-2.998000	3.868200	-11.596000	21.689177	0.000921	20.795742
118.040816	-3.000200	3.867400	-11.601000	21.714793	0.000921	20.792454
119.041174	-2.989200	3.867600	-11.560000	21.726034	0.000921	20.797066
120.037625	-3.011000	3.865800	-11.638000	21.717825	0.000920	20.803549
121.038439	-3.003000	3.865600	-11.608000	21.741121	0.000921	20.794147
122.036644	-3.007900	3.866100	-11.628000	21.757801	0.000920	20.791875
123.040649	-2.991100	3.865900	-11.562000	21.748171	0.000922	20.801203
124.041665	-3.009800	3.865500	-11.631000	21.755456	0.000920	20.798537
125.040981	-3.009100	3.865600	-11.631000	21.778540	0.000921	20.821166
126.046805	-3.011100	3.865600	-11.639000	21.762285	0.000922	20.809165
127.031455	-3.015400	3.865400	-11.655000	21.765577	0.000922	20.821943
128.043181	-3.000300	3.864700	-11.593000	21.785875	0.000924	20.807170
129.041307	-2.997100	3.865400	-11.584000	21.737618	0.000924	20.813875
130.039469	-2.992100	3.865800	-11.566000	21.763952	0.000924	20.814626
131.048650	-3.026800	3.863500	-11.693000	21.794419	0.000924	20.790592
132.045259	-2.998900	3.865000	-11.590000	21.783923	0.000922	20.824183
133.046016	-3.016600	3.863500	-11.653000	21.789984	0.000924	20.787575
134.038820	-3.034800	3.862800	-11.722000	21.804996	0.000923	20.801178
135.042553	-2.985500	3.864800	-11.537000	21.797188	0.000924	20.827976
136.055401	-3.001800	3.864000	-11.597000	21.820581	0.000924	20.823888
137.060025	-2.998400	3.864200	-11.586000	21.805667	0.000923	20.833617
138.047570	-2.997400	3.863400	-11.579000	21.828627	0.000924	20.822933
139.045060	-3.008800	3.864200	-11.626000	21.829599	0.000923	20.823431
140.043922	-3.017400	3.862800	-11.654000	21.838533	0.000925	20.812934
141.048039	-3.019100	3.862900	-11.662000	21.840151	0.000926	20.816449
142.045314	-2.993700	3.863400	-11.565000	21.863233	0.000925	20.840026
143.047252	-3.005700	3.861900	-11.607000	21.856429	0.000927	20.823259
144.042502	-2.999200	3.861900	-11.582000	21.874823	0.000927	20.831713
145.054173	-3.003700	3.861700	-11.599000	21.886617	0.000926	20.819336
146.049094	-2.988300	3.862500	-11.541000	21.887368	0.000927	20.835734
147.041740	-2.970000	3.861300	-11.466000	21.908512	0.000927	20.827976
148.047765	-3.004100	3.861000	-11.597000	21.892031	0.000928	20.832816
149.047183	-2.996000	3.862100	-11.570000	21.923207	0.000927	20.818503
150.045294	-3.029400	3.858400	-11.687000	21.938421	0.000927	20.821879
151.042470	-3.012700	3.860900	-11.629000	21.931618	0.000928	20.819810
152.063246	-3.003100	3.860000	-11.591000	21.934207	0.000927	20.815290
153.049141	-2.996200	3.859600	-11.562000	21.965821	0.000927	20.819434
154.052812	-2.991900	3.860100	-11.548000	21.956993	0.000928	20.839046
155.043414	-3.016400	3.858800	-11.639000	21.954617	0.000927	20.832875
156.048903	-3.005700	3.860200	-11.601000	21.967936	0.000929	20.812069
157.046924	-3.006500	3.860400	-11.606000	21.960807	0.000929	20.813941
158.048804	-2.981000	3.860500	-11.507000	21.965968	0.000931	20.815788
159.052480	-3.002900	3.858900	-11.586000	21.970754	0.000932	20.835752
160.049329	-2.998400	3.859500	-11.570000	21.969635	0.000932	20.805234
161.056600	-3.008200	3.857000	-11.602000	21.961003	0.000932	20.804655
162.058782	-3.025200	3.857100	-11.666000	21.964287	0.000933	20.797036
163.054163	-3.002400	3.858500	-11.584000	21.977231	0.000933	20.806674
164.061675	-3.012200	3.856900	-11.616000	21.975206	0.000934	20.806070
165.058941	-2.998100	3.858000	-11.565000	21.992862	0.000934	20.804303
166.051527	-2.983500	3.857900	-11.508000	21.983136	0.000933	20.799309
167.046929	-2.974900	3.858900	-11.479000	21.978571	0.000935	20.806593
168.055650	-2.989300	3.858200	-11.531000	21.988721	0.000934	20.798262
169.052981	-3.000600	3.857400	-11.573000	21.974055	0.000933	20.793538
170.053825	-3.015800	3.856200	-11.628000	22.006296	0.000934	20.787406
171.054345	-2.982400	3.857400	-11.502000	22.000833	0.000935	20.809438
172.055552	-2.991100	3.855700	-11.532000	22.017232	0.000935	20.814000
173.059470	-2.994600	3.856300	-11.546000	22.033230	0.000935	20.794454
174.060367	-3.005400	3.856100	-11.586000	22.014137	0.000935	20.777237
175.059895	-3.000700	3.855300	-11.567000	22.011786	0.000935	20.805230
176.058069	-3.014500	3.854600	-11.619000	22.040973	0.000936	20.791300
177.056600	-3.010800	3.853300	-11.600000	22.057133	0.000937	20.797520
178.055049	-3.009800	3.854100	-11.599000	22.052789	0.000935	20.791749
179.055860	-3.006700	3.854100	-11.586000	22.033117	0.000939	20.809514
180.061205	-2.993400	3.854600	-11.538000	22.040141	0.000939	20.770552
181.060825	-3.019700	3.854000	-11.636000	22.047319	0.000936	20.799550
182.060264	-3.006400	3.853500	-11.584000	22.049663	0.000937	20.783404
183.065028	-3.021100	3.854600	-11.644000	22.071794	0.000939	20.782799
184.068734	-2.996900	3.853700	-11.548000	22.088763	0.000938	20.791253
185.066805	-3.006900	3.854300	-11.588000	22.085504	0.000938	20.778507
186.068666	-3.014200	3.854200	-11.617000	22.072488	0.000939	20.782546
187.056312	-3.009100	3.853500	-11.594000	22.070888	0.000939	20.789954
188.060254	-3.010700	3.852000	-11.596000	22.081659	0.000939	20.772287
189.079334	-3.004800	3.853000	-11.577000	22.085440	0.000939	20.774650
190.061598	-3.007200	3.852100	-11.583000	22.097934	0.000940	20.802805
191.068330	-2.984900	3.854300	-11.503000	22.119303	0.000943	20.790059
192.063020	-2.996800	3.853800	-11.549000	22.152798	0.000943	20.776178
193.065609	-2.975600	3.851800	-11.460000	22.138264	0.000943	20.775852
194.062109	-2.997100	3.852200	-11.545000	22.093737	0.000941	20.771103
195.067986	-3.016100	3.850000	-11.611000	22.118095	0.000943	20.774626
196.065851	-2.993700	3.852000	-11.530000	22.105031	0.000943	20.767710
197.076134	-2.990600	3.850800	-11.515000	22.120014	0.000942	20.789823
198.076469	-2.991900	3.852300	-11.523000	22.114022	0.000943	20.779083
199.061659	-2.976300	3.852200	-11.464000	22.124171	0.000945	20.790666
200.059334	-2.996900	3.851000	-11.539000	22.118937	0.000945	20.764563
201.067861	-3.006300	3.851400	-11.577000	22.127985	0.000944	20.757974
202.058077	-2.998700	3.851500	-11.549000	22.155282	0.000947	20.764440
203.060252	-2.973900	3.851500	-11.453000	22.147851	0.000944	20.763639
204.060568	-2.979100	3.851100	-11.473000	22.181974	0.000945	20.785475
205.061697	-2.980400	3.850700	-11.475000	22.184588	0.000945	20.768177
206.068670	-3.009600	3.849700	-11.584000	22.160231	0.000945	20.771766
207.080961	-3.010500	3.848500	-11.585000	22.168591	0.000947	20.783456
208.063266	-2.992900	3.849300	-11.518000	22.190246	0.000947	20.766730
209.070822	-3.004300	3.848300	-11.561000	22.194256	0.000949	20.763632
210.073102	-2.994600	3.849400	-11.525000	22.210782	0.000949	20.767376
211.070385	-2.985400	3.848500	-11.488000	22.223845	0.000948	20.769550
212.075822	-2.964000	3.850000	-11.411000	22.219730	0.000949	20.773017
213.068578	-2.988800	3.848900	-11.503000	22.224581	0.000950	20.773132
214.083329	-3.000400	3.848200	-11.545000	22.220221	0.000949	20.772086
215.074594	-2.979400	3.848500	-11.465000	22.227879	0.000950	20.732810
216.063971	-2.975400	3.848000	-11.447000	22.223887	0.000949	20.751574
217.062633	-3.000000	3.846500	-11.539000	22.252774	0.000950	20.762005
218.061826	-3.015900	3.845200	-11.597000	22.254896	0.000951	20.769820
219.067610	-3.006500	3.846900	-11.565000	22.269348	0.000952	20.748729
220.068262	-3.026300	3.847200	-11.642000	22.252848	0.000951	20.771562
221.081449	-3.009900	3.846100	-11.575000	22.272712	0.000954	20.743088
222.071879	-2.998500	3.846900	-11.532000	22.229643	0.000952	20.758286
223.067995	-3.008300	3.847000	-11.572000	22.236901	0.000951	20.765553
224.069874	-2.993900	3.847800	-11.519000	22.209354	0.000953	20.753618
225.073258	-3.008900	3.846300	-11.571000	22.232787	0.000952	20.753846
226.074585	-3.019400	3.845100	-11.608000	22.255166	0.000953	20.745908
227.069702	-2.995900	3.844800	-11.516000	22.274835	0.000955	20.766076
228.074086	-3.006100	3.845800	-11.560000	22.267192	0.000955	20.754630
229.069607	-3.011300	3.845000	-11.577000	22.298438	0.000955	20.747984
230.064653	-2.998600	3.844000	-11.526000	22.314759	0.000957	20.742041
231.068774	-3.020900	3.845000	-11.615000	22.326393	0.000959	20.756536
232.083169	-2.998100	3.845600	-11.529000	22.339954	0.000958	20.745933
233.073356	-2.996500	3.844200	-11.517000	22.333422	0.000957	20.744608
234.072875	-3.010300	3.844200	-11.571000	22.331290	0.000960	20.742947
235.080594	-2.999500	3.842600	-11.524000	22.319322	0.000957	20.736179
236.071456	-3.003500	3.845700	-11.549000	22.327274	0.000959	20.743667
237.082505	-3.001000	3.843800	-11.534000	22.324678	0.000960	20.742491
238.078959	-3.015300	3.843000	-11.587000	22.331283	0.000958	20.755269
239.081017	-2.998700	3.843000	-11.522000	22.344436	0.000960	20.748051
240.079244	-2.982100	3.842700	-11.458000	22.362160	0.000961	20.760583
241.073939	-3.014300	3.842900	-11.582000	22.344843	0.000960	20.759838
242.074781	-2.988300	3.842500	-11.480000	22.367491	0.000963	20.755016
243.086426	-3.008800	3.842500	-11.560000	22.364755	0.000961	20.731887
244.071892	-2.987700	3.842400	-11.479000	22.371654	0.000963	20.750176
245.084908	-2.987400	3.844000	-11.483000	22.386880	0.000963	20.758310
246.078821	-3.010600	3.839800	-11.558000	22.420694	0.000964	20.750446
247.071823	-2.986100	3.842500	-11.472000	22.419551	0.000964	20.745982
248.084515	-3.019600	3.840100	-11.593000	22.433281	0.000963	20.738869
249.069348	-3.007100	3.841000	-11.550000	22.427845	0.000965	20.748124
250.076100	-3.009800	3.840700	-11.559000	22.428988	0.000963	20.749743
251.069304	-2.996800	3.841300	-11.510000	22.443185	0.000968	20.761590
252.074319	-2.982000	3.840500	-11.451000	22.472793	0.000966	20.734815
253.076931	-2.997200	3.840400	-11.510000	22.482034	0.000966	20.757821
254.080225	-2.994000	3.839400	-11.494000	22.480108	0.000967	20.738823
255.089320	-3.000800	3.839200	-11.519000	22.493870	0.000970	20.737432
256.075800	-2.997200	3.838900	-11.503000	22.466434	0.000966	20.729870
257.076374	-3.015700	3.839800	-11.577000	22.478256	0.000969	20.743132
258.083543	-3.000800	3.838600	-11.518000	22.480133	0.000970	20.757814
259.077297	-3.014700	3.837700	-11.569000	22.484141	0.000970	20.731482
260.078665	-2.991900	3.839500	-11.486000	22.493333	0.000971	20.744007
261.080485	-3.010400	3.839400	-11.556000	22.503472	0.000974	20.726659
262.080697	-3.008100	3.838000	-11.544000	22.487954	0.000973	20.747628
263.080020	-2.995500	3.839100	-11.499000	22.510002	0.000971	20.718025
264.082447	-3.021400	3.837600	-11.594000	22.503742	0.000973	20.734042
265.083475	-2.990000	3.837600	-11.474000	22.496795	0.000974	20.720919
266.079537	-3.008300	3.835900	-11.538000	22.517833	0.000974	20.732981
267.075862	-2.989600	3.837300	-11.471000	22.526264	0.000974	20.728148
268.083814	-2.995700	3.837300	-11.495000	22.554736	0.000974	20.745285
269.088321	-2.996500	3.836500	-11.495000	22.518208	0.000976	20.734779
270.100254	-2.999000	3.835700	-11.502000	22.571004	0.000976	20.725541
271.081152	-2.987900	3.837700	-11.466000	22.566694	0.000978	20.732131
272.082943	-2.985200	3.836600	-11.452000	22.573469	0.000978	20.724217
