LabVIEW Measurement	
Writer_Version	2
Reader_Version	2
Separator	Tab
Decimal_Separator	.
Multi_Headings	No
X_Columns	One
Time_Pref	Absolute
Operator	admin
Description	Clolumns are: time, Current, Voltage, Power, Battery Temp, and Chamber Temp
Date	2024/08/16
Time	13:06:06.104549407958984375
***End_of_Header***	
	
Channels	6						
Samples	1	1	1	1	1	1	
Date	2024/08/30	2024/08/30	2024/08/30	2024/08/30	2024/08/30	2024/08/30	
Time	01:45:31.2323431968688964844	01:45:31.2379536628723144531	01:45:31.2439646720886230469	01:45:31.1880750656127929687	01:45:31.1880750656127929687	01:45:31.1880750656127929687	
X_Dimension	Time	Time	Time	Time	Time	Time	
X0	0.0000000000000000E+0	0.0000000000000000E+0	0.0000000000000000E+0	0.0000000000000000E+0	0.0000000000000000E+0	0.0000000000000000E+0	
Delta_X	1.000000	1.000000	1.000000	1.000000	1.000000	1.000000	
***End_of_Header***							
X_Value	Untitled	Untitled 1	Untitled 2	Untitled 3	Untitled 4	Untitled 5	Comment
0.000000	0.015075	4.102300	0.061774	21.138409	0.000962	20.926505
0.973031	-2.994300	3.940900	-11.798000	21.127429	0.000965	20.924057
1.974112	-2.988800	3.934100	-11.757000	21.154999	0.000962	20.924609
2.973343	-2.998300	3.927700	-11.775000	21.146174	0.000961	20.934272
4.008804	-3.005100	3.923700	-11.790000	21.151715	0.000960	20.921324
5.000756	-2.981900	3.919200	-11.685000	21.134176	0.000960	20.939339
5.997314	-3.004000	3.917300	-11.766000	21.147526	0.000958	20.937047
7.012457	-2.989200	3.914500	-11.700000	21.151077	0.000958	20.934909
8.001095	-2.997600	3.913000	-11.729000	21.160791	0.000957	20.950313
9.001056	-2.982900	3.911000	-11.665000	21.153051	0.000957	20.938780
9.996403	-2.981000	3.909900	-11.655000	21.165109	0.000954	20.953684
10.994625	-2.993900	3.908700	-11.701000	21.161902	0.000955	20.949054
12.001453	-2.986000	3.906300	-11.664000	21.164342	0.000953	20.959554
12.996506	-3.017100	3.904800	-11.781000	21.164583	0.000954	20.953158
13.977523	-2.993300	3.903700	-11.684000	21.171115	0.000952	20.961588
14.979659	-2.989100	3.902300	-11.663000	21.175166	0.000952	20.950943
15.980749	-3.005500	3.901100	-11.724000	21.176666	0.000952	20.962873
17.000872	-2.999200	3.899700	-11.694000	21.217566	0.000951	20.950210
17.996544	-3.008000	3.897300	-11.722000	21.207294	0.000951	20.957477
19.007862	-2.989900	3.897600	-11.652000	21.217188	0.000949	20.923756
19.980025	-2.963700	3.897700	-11.551000	21.210734	0.000950	20.964710
20.981188	-3.004300	3.894500	-11.699000	21.219092	0.000948	20.965484
21.980192	-2.991200	3.895900	-11.652000	21.207967	0.000950	20.950565
22.983366	-2.992800	3.894300	-11.654000	21.208157	0.000948	20.954072
23.979606	-2.980200	3.893800	-11.604000	21.219377	0.000945	20.949176
24.984515	-2.996400	3.892700	-11.663000	21.223694	0.000948	20.944487
25.981254	-2.993900	3.891300	-11.650000	21.239380	0.000948	20.963020
26.982122	-3.015200	3.889100	-11.725000	21.233751	0.000946	20.945065
27.987161	-3.007200	3.889800	-11.697000	21.241972	0.000947	20.962769
28.987989	-3.003800	3.890000	-11.683000	21.261234	0.000944	20.976821
29.984718	-2.979700	3.889000	-11.587000	21.263500	0.000944	20.966287
30.984416	-2.979300	3.888600	-11.584000	21.266448	0.000943	20.964495
31.985426	-3.016100	3.886400	-11.720000	21.260208	0.000944	20.956831
32.983374	-2.979600	3.886800	-11.580000	21.273101	0.000943	20.962616
34.011197	-2.986700	3.888000	-11.611000	21.276945	0.000942	20.965987
34.987175	-2.994400	3.886500	-11.636000	21.294833	0.000943	20.954487
35.987426	-3.004600	3.884200	-11.669000	21.299194	0.000941	20.957427
36.986751	-2.997500	3.885700	-11.646000	21.320263	0.000941	20.978028
37.992168	-3.032400	3.884700	-11.778000	21.316834	0.000942	20.968435
38.987302	-2.994600	3.885200	-11.633000	21.316723	0.000941	20.988709
39.989552	-3.012800	3.884600	-11.702000	21.326124	0.000942	20.973935
40.986172	-3.020600	3.882200	-11.725000	21.327175	0.000942	20.970720
41.986408	-3.015500	3.882400	-11.706000	21.342970	0.000942	20.975616
42.990378	-2.982600	3.884300	-11.584000	21.353897	0.000940	20.990338
43.988838	-2.997000	3.882500	-11.635000	21.347443	0.000938	20.977720
44.989190	-2.974200	3.883100	-11.548000	21.359661	0.000940	20.999898
46.006050	-3.003400	3.880900	-11.655000	21.359395	0.000938	20.987779
47.023124	-3.006800	3.879700	-11.664000	21.370209	0.000937	20.972523
48.012633	-3.002400	3.878400	-11.643000	21.371743	0.000937	20.986857
48.991807	-3.001300	3.879400	-11.642000	21.375697	0.000938	20.986072
49.991045	-3.000400	3.879500	-11.638000	21.383298	0.000936	21.007897
51.007745	-3.037100	3.878000	-11.777000	21.398696	0.000940	21.009078
51.990733	-2.994100	3.879800	-11.615000	21.395275	0.000935	20.990012
52.990953	-2.999700	3.877800	-11.631000	21.376215	0.000938	20.985642
53.996089	-3.014200	3.877500	-11.686000	21.395741	0.000936	21.000908
55.008158	-3.001000	3.877400	-11.634000	21.394612	0.000936	20.988401
56.014750	-2.996500	3.877300	-11.617000	21.437996	0.000936	21.001934
57.020855	-3.012200	3.877100	-11.676000	21.425545	0.000935	20.983315
58.018402	-2.973600	3.876900	-11.526000	21.425390	0.000937	21.000227
59.009986	-2.990900	3.876800	-11.595000	21.432843	0.000936	20.991564
59.997054	-3.003100	3.874400	-11.633000	21.454186	0.000937	20.992530
60.994235	-2.998500	3.875000	-11.618000	21.458855	0.000934	21.001942
62.012946	-3.003600	3.875800	-11.640000	21.434257	0.000936	20.994875
62.994737	-2.998300	3.875200	-11.618000	21.468687	0.000936	21.007985
63.993869	-2.993900	3.875000	-11.600000	21.488857	0.000935	21.014415
64.996310	-3.018000	3.873800	-11.690000	21.474356	0.000934	21.007967
65.993981	-3.001600	3.874100	-11.628000	21.473504	0.000935	21.010907
66.994898	-3.008000	3.873600	-11.649000	21.488020	0.000935	20.988927
68.026253	-2.998900	3.873000	-11.614000	21.504461	0.000934	21.011063
69.025667	-2.997000	3.873900	-11.609000	21.506141	0.000933	21.003263
70.018883	-2.990100	3.873600	-11.581000	21.537027	0.000934	21.009985
70.995578	-3.018800	3.870600	-11.683000	21.525758	0.000934	21.010563
72.016586	-3.000300	3.871600	-11.615000	21.552542	0.000936	21.015078
73.016494	-2.997600	3.871300	-11.603000	21.540163	0.000934	21.014070
74.016251	-2.995400	3.871700	-11.595000	21.538949	0.000934	21.027077
75.019556	-2.984400	3.872500	-11.556000	21.572806	0.000933	21.004537
76.016522	-2.984300	3.873200	-11.558000	21.564347	0.000934	21.018829
77.016225	-3.007300	3.870000	-11.637000	21.571851	0.000933	21.028233
78.026478	-3.004400	3.870300	-11.626000	21.589538	0.000933	21.030284
79.011863	-2.994400	3.869300	-11.584000	21.605811	0.000935	21.028551
80.028180	-2.989000	3.871500	-11.571000	21.612489	0.000933	21.016270
81.025445	-3.010400	3.870000	-11.648000	21.603856	0.000932	21.025173
82.013212	-3.009000	3.870000	-11.644000	21.594587	0.000934	21.021588
83.018869	-2.996700	3.870500	-11.598000	21.620044	0.000934	21.022881
84.020597	-3.024500	3.868100	-11.698000	21.625567	0.000933	21.006599
84.997622	-2.993100	3.870600	-11.582000	21.619744	0.000933	21.024477
86.014113	-3.012400	3.869200	-11.654000	21.628091	0.000935	21.028562
87.019514	-3.020800	3.869100	-11.685000	21.630649	0.000933	21.030173
88.017305	-3.005400	3.868200	-11.624000	21.637308	0.000933	21.012185
89.001204	-3.002100	3.868700	-11.613000	21.651178	0.000933	21.030803
90.000350	-3.009800	3.867700	-11.640000	21.658940	0.000934	21.021977
90.997233	-2.959700	3.867100	-11.445000	21.662231	0.000933	21.027166
92.019350	-3.012600	3.865500	-11.644000	21.676652	0.000933	21.021684
92.998110	-2.995500	3.868700	-11.588000	21.688996	0.000937	20.992792
93.997886	-2.981100	3.867300	-11.527000	21.679495	0.000933	21.007936
95.000886	-3.001800	3.865400	-11.602000	21.683026	0.000934	21.001514
95.997169	-3.003100	3.866000	-11.609000	21.691658	0.000932	21.002566
96.997747	-2.995500	3.867100	-11.581000	21.699109	0.000933	20.989162
98.000032	-2.996100	3.864800	-11.579000	21.695363	0.000935	21.003429
98.999566	-2.992300	3.866700	-11.568000	21.676359	0.000932	20.998636
100.005311	-2.991000	3.865500	-11.560000	21.693364	0.000934	20.992895
101.001917	-3.001300	3.866400	-11.603000	21.698739	0.000934	20.990688
102.034223	-3.011300	3.864100	-11.635000	21.696473	0.000934	20.999325
103.025582	-3.008200	3.863600	-11.621000	21.708370	0.000934	20.977570
104.022688	-2.983900	3.865100	-11.532000	21.717131	0.000933	20.974958
105.024192	-3.009900	3.863400	-11.627000	21.718112	0.000934	21.000118
106.002917	-3.001800	3.864200	-11.598000	21.718715	0.000934	21.006410
107.017661	-3.019700	3.862000	-11.661000	21.729319	0.000935	20.977199
108.004719	-2.985700	3.864300	-11.536000	21.724400	0.000933	20.992662
109.022675	-2.982200	3.863700	-11.521000	21.733368	0.000932	20.976510
110.024934	-2.997100	3.862300	-11.574000	21.771140	0.000936	20.973062
111.021428	-3.002400	3.863500	-11.599000	21.775533	0.000935	20.977458
112.021304	-3.003200	3.863900	-11.601000	21.774637	0.000936	20.979406
113.009356	-3.005700	3.862200	-11.607000	21.782958	0.000935	20.978251
114.031209	-2.999600	3.862800	-11.585000	21.794372	0.000932	20.970236
115.009583	-3.011800	3.860500	-11.626000	21.781640	0.000935	20.983569
116.010952	-2.986200	3.863100	-11.534000	21.813795	0.000934	20.996310
117.008297	-2.986800	3.862700	-11.536000	21.801185	0.000935	20.982269
118.010054	-2.984200	3.861000	-11.520000	21.795871	0.000935	20.966047
119.028536	-2.992700	3.862600	-11.559000	21.800779	0.000936	20.980914
120.009148	-2.994400	3.862300	-11.563000	21.816586	0.000934	20.974451
121.011834	-2.993300	3.862200	-11.559000	21.797929	0.000937	20.970951
122.009573	-2.996800	3.860300	-11.568000	21.814639	0.000935	20.974399
123.008931	-2.981700	3.862100	-11.514000	21.797610	0.000937	20.988173
124.033797	-2.995900	3.861800	-11.569000	21.831667	0.000937	20.973425
125.040043	-3.013600	3.858200	-11.625000	21.839402	0.000937	20.975950
126.029602	-2.993200	3.859300	-11.551000	21.831453	0.000934	20.970365
127.035182	-2.988800	3.859500	-11.534000	21.860031	0.000937	20.960565
128.039262	-3.014400	3.859500	-11.634000	21.851031	0.000937	20.963883
129.032686	-3.007600	3.859500	-11.607000	21.861711	0.000937	20.958928
130.013653	-3.030100	3.858600	-11.690000	21.864931	0.000939	20.953617
131.016029	-2.968100	3.858800	-11.453000	21.879764	0.000938	20.976995
132.014014	-3.023600	3.856600	-11.660000	21.899323	0.000937	20.973813
133.015124	-2.988400	3.860400	-11.534000	21.871245	0.000938	20.966098
134.030540	-2.977300	3.859600	-11.490000	21.900271	0.000938	20.959117
135.037285	-3.013400	3.856300	-11.620000	21.907935	0.000939	20.966787
136.019099	-3.001300	3.858200	-11.579000	21.907161	0.000938	20.946575
137.017982	-2.977100	3.857700	-11.484000	21.903372	0.000938	20.987347
138.016385	-3.017800	3.857200	-11.639000	21.892847	0.000938	20.964487
139.015326	-3.002600	3.857800	-11.583000	21.889272	0.000939	20.948583
140.016078	-2.995900	3.858300	-11.558000	21.903879	0.000938	20.944713
141.015923	-2.989500	3.857200	-11.530000	21.931723	0.000939	20.958832
142.018058	-3.006800	3.856500	-11.595000	21.913938	0.000939	20.967580
143.033317	-3.013900	3.855900	-11.620000	21.929388	0.000939	20.958391
144.041429	-3.020500	3.854700	-11.641000	21.949834	0.000940	20.953254
145.036605	-2.987500	3.855800	-11.518000	21.947096	0.000939	20.956676
146.038090	-3.013100	3.855800	-11.617000	21.923575	0.000938	20.968217
147.035960	-2.998800	3.855900	-11.562000	21.939284	0.000941	20.951702
148.017191	-2.996600	3.854700	-11.551000	21.945734	0.000940	20.953417
149.037826	-2.994000	3.855300	-11.542000	21.960263	0.000941	20.954684
150.017449	-2.975600	3.856300	-11.474000	21.966731	0.000940	20.964003
151.020950	-2.996000	3.853700	-11.544000	21.982104	0.000941	20.943832
152.046758	-2.990700	3.855100	-11.529000	21.999551	0.000941	20.957977
153.042008	-2.973300	3.854700	-11.460000	22.024681	0.000941	20.958003
154.038270	-3.005800	3.853000	-11.581000	22.007741	0.000942	20.942943
155.047980	-3.007300	3.852700	-11.586000	22.004529	0.000940	20.939254
156.052546	-2.992800	3.852200	-11.528000	22.009472	0.000946	20.982129
157.040307	-3.005900	3.852800	-11.579000	22.010720	0.000943	20.946873
158.041438	-3.007300	3.853000	-11.586000	21.999163	0.000943	20.946210
159.041239	-2.999900	3.852800	-11.556000	22.031372	0.000944	20.966596
160.046813	-2.985000	3.854100	-11.502000	22.044452	0.000945	20.960725
161.023388	-3.001500	3.852300	-11.561000	22.071734	0.000944	20.949158
162.026270	-3.016400	3.851900	-11.618000	22.040456	0.000943	20.938710
163.048427	-2.994800	3.852700	-11.537000	22.057637	0.000944	20.945477
164.053712	-2.963600	3.851400	-11.412000	22.042384	0.000944	20.952018
165.022673	-3.005100	3.851700	-11.572000	22.046976	0.000943	20.938598
166.024865	-3.009900	3.851200	-11.591000	22.050351	0.000945	20.941503
167.041974	-2.981100	3.852500	-11.484000	22.061244	0.000947	20.950036
168.044331	-3.019800	3.849700	-11.624000	22.067479	0.000946	20.943003
169.057105	-3.026600	3.849800	-11.650000	22.095664	0.000946	20.942769
170.040911	-2.982500	3.851600	-11.486000	22.097688	0.000948	20.934839
171.030291	-3.013300	3.849600	-11.598000	22.095664	0.000946	20.935184
172.044525	-3.002000	3.851100	-11.560000	22.078536	0.000947	20.956440
173.047036	-2.994900	3.850100	-11.530000	22.091083	0.000950	20.948614
174.048945	-2.982500	3.850900	-11.484000	22.107797	0.000948	20.942114
175.049478	-2.995100	3.849900	-11.530000	22.099194	0.000948	20.926391
176.027045	-2.996100	3.850500	-11.536000	22.116847	0.000950	20.935054
177.026246	-3.017900	3.848900	-11.613000	22.116348	0.000949	20.921280
178.047585	-2.993000	3.850900	-11.525000	22.121772	0.000949	20.948992
179.049705	-2.997800	3.849200	-11.538000	22.144479	0.000950	20.935218
180.045858	-3.012200	3.849000	-11.593000	22.160659	0.000950	20.938614
181.029206	-2.997200	3.848100	-11.533000	22.171474	0.000950	20.934269
182.028692	-3.013800	3.847500	-11.594000	22.167952	0.000950	20.945440
183.028510	-3.036500	3.847600	-11.681000	22.192130	0.000954	20.939303
184.028788	-3.013400	3.847600	-11.593000	22.192767	0.000950	20.941837
185.030257	-3.003300	3.848000	-11.556000	22.192578	0.000953	20.926002
186.028502	-3.006200	3.848700	-11.569000	22.183683	0.000952	20.947440
187.047502	-2.987800	3.847400	-11.493000	22.205054	0.000953	20.933277
188.047543	-2.989500	3.846700	-11.499000	22.203470	0.000953	20.932640
189.052903	-3.005900	3.846700	-11.561000	22.231351	0.000953	20.942062
190.029428	-2.987500	3.847400	-11.493000	22.215206	0.000954	20.943440
191.031668	-3.024400	3.846400	-11.632000	22.241570	0.000956	20.939018
192.029097	-3.014000	3.846600	-11.593000	22.213045	0.000954	20.945544
193.047655	-3.004100	3.846800	-11.554000	22.209238	0.000954	20.927984
194.046634	-3.005500	3.845800	-11.558000	22.217444	0.000956	20.938570
195.056530	-3.001000	3.844700	-11.537000	22.219838	0.000957	20.920106
196.061446	-3.007500	3.846000	-11.566000	22.218495	0.000957	20.948629
197.043095	-3.000200	3.844800	-11.534000	22.245806	0.000957	20.927614
198.057065	-3.012700	3.844200	-11.580000	22.246417	0.000957	20.933914
199.052794	-3.006000	3.844700	-11.556000	22.265248	0.000958	20.922899
200.053912	-3.028400	3.842900	-11.637000	22.281874	0.000956	20.947129
201.050864	-3.020800	3.843600	-11.610000	22.283949	0.000958	20.916494
202.049397	-3.033000	3.842200	-11.653000	22.295366	0.000958	20.915124
203.058146	-3.004500	3.844800	-11.550000	22.299136	0.000959	20.957300
204.048549	-2.996500	3.843300	-11.515000	22.306627	0.000959	20.951052
205.031748	-3.008600	3.843600	-11.563000	22.313230	0.000958	20.941544
206.032453	-3.010300	3.842300	-11.566000	22.311266	0.000959	20.927725
207.065495	-2.995000	3.843700	-11.511000	22.327514	0.000960	20.929769
208.049312	-2.989200	3.842200	-11.484000	22.343802	0.000962	20.930432
209.050011	-2.998200	3.842900	-11.520000	22.332412	0.000962	20.945578
210.048726	-3.001800	3.842800	-11.533000	22.311473	0.000964	20.936466
211.049553	-3.011100	3.840400	-11.563000	22.329830	0.000964	20.925451
212.054305	-2.984200	3.843400	-11.468000	22.334203	0.000963	20.908494
213.049355	-2.991000	3.842500	-11.492000	22.343432	0.000962	20.933855
214.054626	-3.007000	3.842100	-11.551000	22.343518	0.000965	20.906442
215.048639	-2.993900	3.841100	-11.499000	22.378816	0.000964	20.938940
216.034170	-2.990100	3.841300	-11.484000	22.387546	0.000964	20.923502
217.036633	-2.973000	3.842800	-11.424000	22.378583	0.000966	20.929225
218.035965	-3.010100	3.842000	-11.563000	22.381054	0.000965	20.936914
219.034380	-3.013400	3.841100	-11.574000	22.379659	0.000968	20.932199
220.036499	-3.011900	3.841000	-11.568000	22.418985	0.000967	20.928907
221.065888	-3.015900	3.840200	-11.579000	22.432224	0.000965	20.932207
222.036768	-3.003600	3.840600	-11.535000	22.394578	0.000967	20.940974
223.038261	-2.996800	3.840200	-11.508000	22.400183	0.000967	20.926673
224.037264	-3.007600	3.839100	-11.545000	22.411039	0.000969	20.939440
225.043134	-2.997700	3.840600	-11.512000	22.412253	0.000968	20.922166
226.057167	-2.997900	3.839500	-11.509000	22.430253	0.000967	20.953464
227.040041	-3.013400	3.838200	-11.565000	22.442762	0.000970	20.902934
228.056724	-2.998200	3.838200	-11.507000	22.444768	0.000969	20.933388
229.057943	-3.004700	3.838800	-11.534000	22.452550	0.000970	20.909891
230.062467	-2.998600	3.839100	-11.511000	22.452291	0.000970	20.921484
231.065306	-3.000800	3.839700	-11.521000	22.459360	0.000969	20.924295
232.061798	-2.968700	3.839700	-11.398000	22.457588	0.000971	20.931528
233.068058	-2.995600	3.838800	-11.499000	22.470930	0.000971	20.916443
234.071106	-2.995700	3.838700	-11.499000	22.471566	0.000974	20.898116
235.061460	-3.012300	3.836600	-11.555000	22.486735	0.000974	20.923736
236.042614	-2.994200	3.837600	-11.490000	22.477869	0.000972	20.891152
237.074166	-2.985500	3.837300	-11.455000	22.481243	0.000974	20.918709
238.041764	-3.006700	3.837100	-11.536000	22.454325	0.000975	20.930632
239.059713	-3.015400	3.837100	-11.569000	22.441774	0.000975	20.921857
240.059224	-2.986400	3.836800	-11.457000	22.457295	0.000976	20.932658
241.065568	-3.007200	3.836100	-11.534000	22.457029	0.000975	20.916746
242.042327	-3.011600	3.836600	-11.553000	22.471155	0.000977	20.916668
243.047032	-2.989500	3.835800	-11.466000	22.485969	0.000976	20.921546
244.043882	-2.988200	3.836400	-11.463000	22.498590	0.000976	20.919013
245.042708	-2.985600	3.835000	-11.447000	22.524810	0.000975	20.915875
246.041564	-3.022200	3.833300	-11.584000	22.503324	0.000979	20.913323
247.043546	-2.996800	3.834500	-11.491000	22.521074	0.000979	20.904074
248.046533	-3.012500	3.832800	-11.545000	22.538747	0.000978	20.918453
249.044974	-3.010200	3.832800	-11.536000	22.555420	0.000979	20.916660
250.046317	-3.008200	3.834200	-11.533000	22.572094	0.000979	20.908230
251.067668	-2.979000	3.835300	-11.424000	22.576672	0.000980	20.922298
252.049003	-3.007200	3.834700	-11.531000	22.561464	0.000981	20.913230
253.064033	-3.001000	3.834600	-11.506000	22.577930	0.000980	20.895584
254.066252	-2.983700	3.834700	-11.439000	22.572422	0.000981	20.927049
255.047878	-3.021600	3.833400	-11.582000	22.584790	0.000983	20.919049
256.065800	-2.999600	3.834000	-11.500000	22.586736	0.000982	20.905826
257.051835	-2.982200	3.833500	-11.431000	22.590678	0.000981	20.901240
258.048285	-2.995100	3.832300	-11.476000	22.570055	0.000985	20.889595
259.067353	-2.983200	3.833500	-11.435000	22.588122	0.000983	20.923334
260.075253	-3.000600	3.832300	-11.498000	22.600320	0.000984	20.914215
261.048429	-3.014500	3.831400	-11.550000	22.593855	0.000983	20.939031
262.049010	-3.008700	3.831800	-11.528000	22.609289	0.000987	20.911818
263.048977	-3.000700	3.832300	-11.499000	22.622363	0.000985	20.919697
264.049370	-3.001400	3.831600	-11.499000	22.621830	0.000986	20.907785
265.051018	-2.991700	3.831700	-11.462000	22.593537	0.000985	20.905525
266.054919	-3.000400	3.832300	-11.498000	22.596584	0.000986	20.915689
267.051215	-3.007900	3.831000	-11.522000	22.606052	0.000988	20.892457
268.051427	-3.034300	3.829000	-11.617000	22.606441	0.000986	20.919870
269.053766	-3.011800	3.831000	-11.536000	22.604022	0.000988	20.901328
270.055105	-2.979500	3.831800	-11.416000	22.605908	0.000987	20.897054
271.076840	-3.008600	3.830400	-11.523000	22.642256	0.000989	20.901691
272.070100	-2.994800	3.831100	-11.472000	22.617458	0.000991	20.902932
