LabVIEW Measurement	
Writer_Version	2
Reader_Version	2
Separator	Tab
Decimal_Separator	.
Multi_Headings	No
X_Columns	One
Time_Pref	Absolute
Operator	admin
Description	Clolumns are: time, Current, Voltage, Power, Battery Temp, and Chamber Temp
Date	2024/08/16
Time	13:06:06.104549407958984375
***End_of_Header***	
	
Channels	6						
Samples	1	1	1	1	1	1	
Date	2024/09/13	2024/09/13	2024/09/13	2024/09/13	2024/09/13	2024/09/13	
Time	21:40:06.854644775390625	21:40:06.8595952987670898437	21:40:06.8664717674255371094	21:40:06.8382282257080078125	21:40:06.8382282257080078125	21:40:06.8382282257080078125	
X_Dimension	Time	Time	Time	Time	Time	Time	
X0	0.0000000000000000E+0	0.0000000000000000E+0	0.0000000000000000E+0	0.0000000000000000E+0	0.0000000000000000E+0	0.0000000000000000E+0	
Delta_X	1.000000	1.000000	1.000000	1.000000	1.000000	1.000000	
***End_of_Header***							
X_Value	Untitled	Untitled 1	Untitled 2	Untitled 3	Untitled 4	Untitled 5	Comment
0.000000	0.070693	4.094000	0.293240	21.070335	0.000923	20.825704
0.998027	-3.011500	3.913300	-11.784000	21.070034	0.000925	20.833463
2.001128	-2.994800	3.908300	-11.703000	21.054692	0.000924	20.815747
2.998637	-3.007200	3.903000	-11.736000	21.059605	0.000923	20.822557
4.002722	-2.989700	3.897900	-11.653000	21.076695	0.000921	20.824004
4.999753	-2.998800	3.893600	-11.675000	21.084403	0.000922	20.829817
5.998969	-3.001000	3.892300	-11.680000	21.066691	0.000922	20.819688
7.000674	-3.013500	3.889800	-11.721000	21.064173	0.000920	20.828549
8.000602	-3.005200	3.888000	-11.683000	21.065915	0.000918	20.832188
9.000510	-3.008400	3.885700	-11.689000	21.064696	0.000919	20.811055
10.001774	-3.004200	3.882500	-11.662000	21.088768	0.000917	20.809054
11.002320	-2.993000	3.883000	-11.621000	21.087099	0.000916	20.823506
12.001902	-2.997900	3.879800	-11.631000	21.082501	0.000915	20.837398
13.003482	-2.990500	3.878000	-11.596000	21.082600	0.000915	20.805255
14.001567	-2.989600	3.878200	-11.594000	21.097774	0.000917	20.824701
15.001557	-3.035100	3.875200	-11.760000	21.088516	0.000914	20.826345
16.001470	-3.014600	3.876300	-11.685000	21.098470	0.000912	20.807853
17.002209	-3.001500	3.874300	-11.627000	21.107778	0.000912	20.821905
18.005066	-3.005000	3.871900	-11.633000	21.098618	0.000911	20.804682
19.002053	-2.996600	3.871500	-11.600000	21.110266	0.000911	20.824868
20.003637	-2.995200	3.871400	-11.595000	21.115634	0.000911	20.818857
21.001546	-3.003400	3.868900	-11.619000	21.115467	0.000910	20.802095
22.002913	-2.984500	3.870200	-11.549000	21.131929	0.000913	20.809078
23.004919	-3.038000	3.867600	-11.748000	21.131553	0.000910	20.814867
24.006398	-2.979300	3.869700	-11.528000	21.137346	0.000909	20.792212
25.004839	-2.992900	3.865700	-11.568000	21.155802	0.000906	20.808777
26.004586	-2.996100	3.865700	-11.581000	21.167756	0.000910	20.804614
27.004862	-3.003400	3.865500	-11.609000	21.151295	0.000908	20.805691
28.005043	-2.995200	3.866100	-11.579000	21.166384	0.000907	20.826948
29.007062	-3.002700	3.862100	-11.595000	21.177987	0.000907	20.808684
30.009537	-3.008400	3.863500	-11.621000	21.181908	0.000908	20.811658
31.006783	-2.998300	3.864100	-11.585000	21.197931	0.000908	20.812039
32.004430	-3.016800	3.860700	-11.645000	21.200301	0.000905	20.800659
33.006335	-2.989500	3.861600	-11.543000	21.204714	0.000906	20.808394
34.009804	-2.991100	3.862000	-11.551000	21.209553	0.000906	20.805173
35.007266	-2.990000	3.861300	-11.543000	21.198312	0.000907	20.809575
36.007844	-3.013600	3.861500	-11.636000	21.199734	0.000908	20.815739
37.007307	-3.018700	3.860300	-11.652000	21.219764	0.000908	20.808750
38.006879	-2.994000	3.859500	-11.554000	21.211085	0.000905	20.808128
39.007654	-2.995800	3.859500	-11.561000	21.195972	0.000906	20.799174
40.010065	-3.013100	3.858000	-11.623000	21.225784	0.000905	20.796754
41.007368	-3.003800	3.857200	-11.586000	21.232444	0.000905	20.781131
42.017079	-2.997900	3.856900	-11.561000	21.257817	0.000906	20.790393
43.007883	-2.994600	3.856000	-11.546000	21.264680	0.000904	20.798681
44.007669	-3.011600	3.855200	-11.609000	21.273715	0.000906	20.796814
45.010369	-2.987300	3.855800	-11.517000	21.264882	0.000907	20.796039
46.017255	-2.984900	3.856900	-11.511000	21.280572	0.000903	20.784234
47.010515	-3.005000	3.856100	-11.586000	21.272496	0.000904	20.790853
48.009342	-3.000700	3.855700	-11.567000	21.291977	0.000904	20.781420
49.010154	-3.005000	3.853100	-11.577000	21.293577	0.000904	20.807676
50.012383	-2.987200	3.854400	-11.513000	21.303056	0.000906	20.797719
51.012929	-2.999600	3.854100	-11.559000	21.314037	0.000904	20.807282
52.013587	-3.004600	3.851900	-11.572000	21.325085	0.000904	20.797947
53.012052	-3.015200	3.851600	-11.613000	21.320924	0.000904	20.798051
54.013034	-3.002800	3.851500	-11.564000	21.328151	0.000904	20.793427
55.012439	-2.984300	3.852500	-11.497000	21.329904	0.000902	20.787595
56.015319	-2.979800	3.852700	-11.479000	21.335370	0.000903	20.785476
57.013538	-2.961700	3.852200	-11.407000	21.354025	0.000904	20.784226
58.016155	-2.972600	3.851900	-11.450000	21.356696	0.000904	20.773622
59.012739	-2.988500	3.849700	-11.504000	21.377056	0.000902	20.790673
60.013400	-2.997800	3.850500	-11.542000	21.387581	0.000903	20.786504
61.013832	-3.005900	3.849500	-11.571000	21.387008	0.000904	20.775974
62.013344	-3.011400	3.849800	-11.591000	21.391095	0.000902	20.773425
63.012839	-2.992800	3.849900	-11.521000	21.399108	0.000902	20.799460
64.014278	-3.008500	3.848600	-11.577000	21.399735	0.000902	20.774957
65.012846	-3.012600	3.847900	-11.589000	21.422858	0.000904	20.787187
66.013613	-2.991700	3.848800	-11.514000	21.421510	0.000906	20.781571
67.016136	-3.000500	3.848200	-11.546000	21.433388	0.000906	20.772118
68.014851	-2.998800	3.846900	-11.534000	21.445802	0.000904	20.798764
69.014986	-2.996200	3.848000	-11.528000	21.437979	0.000905	20.780979
70.016662	-2.985900	3.848500	-11.490000	21.468751	0.000904	20.796122
71.015459	-3.019400	3.846700	-11.614000	21.451519	0.000907	20.794053
72.018597	-2.999500	3.845900	-11.535000	21.467749	0.000902	20.777575
73.016083	-3.000800	3.844900	-11.537000	21.481669	0.000904	20.781546
74.017058	-3.015900	3.845600	-11.597000	21.459865	0.000907	20.771583
75.019501	-3.004000	3.846000	-11.551000	21.483189	0.000904	20.792551
76.015448	-2.994700	3.845600	-11.515000	21.473115	0.000906	20.787686
77.018839	-2.982800	3.843700	-11.464000	21.484734	0.000905	20.810692
78.017807	-2.979900	3.844600	-11.456000	21.493412	0.000905	20.781442
79.015575	-2.982400	3.844100	-11.463000	21.524237	0.000904	20.764397
80.015367	-2.995600	3.843200	-11.512000	21.510816	0.000905	20.773727
81.017193	-3.003800	3.842400	-11.541000	21.510312	0.000904	20.775593
82.016156	-2.981700	3.846000	-11.466000	21.538313	0.000905	20.776111
83.025243	-2.997600	3.843300	-11.520000	21.537943	0.000904	20.770051
84.015289	-2.983900	3.843800	-11.468000	21.538633	0.000906	20.782595
85.017152	-3.000300	3.841600	-11.523000	21.550350	0.000906	20.784363
86.016034	-2.984200	3.842800	-11.467000	21.564621	0.000906	20.774461
87.016838	-3.009200	3.842000	-11.560000	21.561021	0.000907	20.760902
88.021523	-3.010000	3.842100	-11.564000	21.577230	0.000906	20.773328
89.018837	-3.017900	3.840900	-11.591000	21.586000	0.000906	20.773569
90.019529	-3.002100	3.841800	-11.531000	21.598941	0.000905	20.776562
91.017860	-2.989300	3.841400	-11.482000	21.611611	0.000905	20.766007
92.017606	-2.997100	3.839100	-11.505000	21.620080	0.000907	20.777327
93.018578	-2.995100	3.841000	-11.503000	21.640361	0.000906	20.783398
94.022134	-2.993600	3.840800	-11.497000	21.638909	0.000906	20.762030
95.018785	-2.982800	3.840100	-11.454000	21.649875	0.000908	20.781065
96.018353	-2.987300	3.840600	-11.472000	21.645936	0.000910	20.775701
97.019554	-2.998100	3.839600	-11.511000	21.663664	0.000909	20.769735
98.019063	-2.991900	3.839700	-11.487000	21.669424	0.000910	20.772654
99.021806	-3.005200	3.839600	-11.539000	21.655837	0.000909	20.743409
100.019933	-3.014600	3.838100	-11.569000	21.693957	0.000907	20.782507
101.020485	-2.993900	3.839700	-11.494000	21.677147	0.000909	20.787021
102.018730	-3.006400	3.840800	-11.546000	21.685127	0.000909	20.763239
103.017358	-2.997800	3.837900	-11.505000	21.695772	0.000909	20.768202
104.019371	-2.997700	3.838600	-11.505000	21.719412	0.000910	20.769575
105.019213	-3.010600	3.837100	-11.551000	21.716835	0.000910	20.775531
106.019267	-2.999800	3.836800	-11.507000	21.719825	0.000909	20.749600
107.019490	-3.005900	3.837300	-11.533000	21.714885	0.000911	20.766467
108.020589	-3.006400	3.837500	-11.536000	21.722914	0.000911	20.758856
109.021249	-2.997900	3.837100	-11.502000	21.735356	0.000912	20.749970
110.023789	-2.995600	3.838400	-11.497000	21.750289	0.000910	20.772502
111.029203	-2.990000	3.835200	-11.466000	21.755174	0.000911	20.784030
112.027501	-2.991600	3.836900	-11.478000	21.744875	0.000910	20.758074
113.022510	-3.010800	3.835000	-11.545000	21.748615	0.000913	20.790742
114.022287	-3.004900	3.835200	-11.523000	21.791253	0.000911	20.756128
115.026237	-2.988500	3.835900	-11.462000	21.769110	0.000913	20.763364
116.023688	-3.023400	3.833500	-11.589000	21.799455	0.000911	20.779036
117.023763	-2.982200	3.834700	-11.435000	21.803590	0.000912	20.760889
118.025571	-3.006000	3.834600	-11.526000	21.833041	0.000912	20.747218
119.024836	-3.000800	3.833300	-11.502000	21.839495	0.000913	20.769800
120.025488	-3.026100	3.833100	-11.598000	21.839495	0.000912	20.777386
121.031498	-2.997900	3.834200	-11.493000	21.836351	0.000912	20.761912
122.025893	-3.015400	3.831400	-11.552000	21.836425	0.000914	20.762934
123.026726	-2.995600	3.832300	-11.479000	21.849462	0.000913	20.766500
124.025219	-2.994200	3.833300	-11.476000	21.839366	0.000912	20.776783
125.024402	-2.989000	3.832900	-11.455000	21.852452	0.000915	20.759535
126.029100	-3.016000	3.832200	-11.556000	21.854199	0.000914	20.750378
127.028640	-2.994700	3.831900	-11.474000	21.870927	0.000915	20.756216
128.027306	-2.994400	3.832100	-11.473000	21.886012	0.000913	20.768470
129.028328	-2.980500	3.832400	-11.421000	21.888934	0.000912	20.753376
130.027410	-2.994600	3.831100	-11.471000	21.896212	0.000916	20.782947
131.028402	-2.998200	3.831000	-11.484000	21.888884	0.000913	20.764707
132.028533	-2.980500	3.831200	-11.418000	21.896918	0.000915	20.743350
133.029369	-2.993300	3.830500	-11.464000	21.900732	0.000915	20.751910
134.028261	-2.975700	3.831300	-11.399000	21.896143	0.000917	20.762964
135.030123	-2.998600	3.828800	-11.481000	21.915042	0.000917	20.757225
136.028986	-2.985600	3.830300	-11.435000	21.950292	0.000917	20.768802
137.033176	-3.001700	3.829100	-11.493000	21.925562	0.000918	20.755427
138.030322	-3.006700	3.828900	-11.511000	21.958350	0.000917	20.741306
139.034757	-2.999300	3.829500	-11.485000	21.961991	0.000918	20.747322
140.031034	-3.008500	3.828900	-11.518000	21.953441	0.000917	20.760574
141.031324	-2.999100	3.828800	-11.480000	21.979117	0.000919	20.762569
142.035183	-2.985400	3.828800	-11.430000	21.971188	0.000920	20.752261
143.032598	-3.014600	3.828400	-11.540000	21.971563	0.000920	20.742205
144.031998	-3.008700	3.829200	-11.519000	21.981264	0.000920	20.728681
145.032520	-3.010300	3.826700	-11.518000	21.984604	0.000920	20.732499
146.033291	-2.999000	3.827200	-11.477000	21.990012	0.000921	20.756405
147.033405	-3.013700	3.828300	-11.535000	22.000364	0.000919	20.738318
148.036331	-2.989300	3.826700	-11.439000	22.006275	0.000922	20.741391
149.034079	-3.016800	3.826200	-11.542000	22.047803	0.000922	20.747876
150.035168	-3.000800	3.826100	-11.479000	22.043189	0.000921	20.738990
151.035195	-3.008900	3.826300	-11.512000	22.050220	0.000921	20.736071
152.035150	-2.977900	3.826200	-11.392000	22.034817	0.000922	20.747204
153.038523	-2.971900	3.827000	-11.373000	22.022478	0.000924	20.751447
154.042803	-2.979300	3.826500	-11.398000	22.052569	0.000923	20.760234
155.039122	-2.995000	3.824900	-11.454000	22.057128	0.000923	20.734451
156.038089	-2.975300	3.827400	-11.386000	22.073384	0.000924	20.743140
157.037833	-2.984500	3.825600	-11.417000	22.092951	0.000924	20.743762
158.039714	-3.001200	3.825100	-11.479000	22.081338	0.000927	20.747309
159.037448	-2.997900	3.826100	-11.469000	22.109774	0.000924	20.748750
160.039072	-2.992300	3.825400	-11.446000	22.111625	0.000927	20.747758
161.039713	-3.010800	3.823900	-11.512000	22.119632	0.000926	20.737757
162.041740	-3.002800	3.824500	-11.482000	22.147974	0.000926	20.748115
163.039920	-3.002200	3.823600	-11.477000	22.130224	0.000926	20.733662
164.039341	-2.992700	3.826100	-11.449000	22.156825	0.000926	20.741328
165.039134	-3.007700	3.824200	-11.501000	22.146800	0.000929	20.745516
166.040662	-3.002200	3.822900	-11.475000	22.166691	0.000928	20.717065
167.041069	-3.031100	3.822600	-11.585000	22.176617	0.000928	20.725107
168.040483	-3.002400	3.823000	-11.477000	22.172779	0.000928	20.740706
169.044531	-2.979000	3.821500	-11.383000	22.165404	0.000928	20.736167
170.041797	-2.997900	3.821700	-11.456000	22.169538	0.000930	20.726080
171.047191	-2.998700	3.821500	-11.457000	22.194589	0.000931	20.728402
172.041938	-3.004500	3.821700	-11.481000	22.173455	0.000932	20.728580
173.041914	-3.010800	3.820300	-11.501000	22.190904	0.000932	20.732774
174.042551	-2.978100	3.822500	-11.383000	22.182908	0.000932	20.730458
175.045728	-2.990900	3.821000	-11.426000	22.189292	0.000931	20.749653
176.060255	-3.008800	3.820900	-11.496000	22.186026	0.000932	20.729786
177.043661	-3.001400	3.820000	-11.463000	22.187422	0.000933	20.720278
178.043191	-2.990800	3.820100	-11.424000	22.200135	0.000932	20.744387
179.042957	-2.985800	3.821200	-11.408000	22.206617	0.000933	20.712943
180.046988	-2.998400	3.820500	-11.454000	22.231993	0.000934	20.731713
181.042924	-3.004800	3.819000	-11.474000	22.232319	0.000934	20.723979
182.048272	-3.005900	3.820000	-11.482000	22.235757	0.000936	20.721257
183.049000	-2.990100	3.820300	-11.423000	22.252528	0.000936	20.715764
184.043038	-3.014300	3.818500	-11.509000	22.260160	0.000936	20.729570
185.053652	-3.002900	3.818700	-11.466000	22.267091	0.000938	20.712801
186.046414	-2.974400	3.820600	-11.361000	22.264520	0.000935	20.737730
187.043658	-2.997000	3.818000	-11.442000	22.281420	0.000937	20.720511
188.044528	-2.995200	3.817400	-11.433000	22.271697	0.000936	20.714569
189.044497	-3.014700	3.817600	-11.507000	22.280325	0.000939	20.734115
190.044582	-3.011100	3.817300	-11.494000	22.271728	0.000939	20.732144
191.046618	-2.999100	3.817000	-11.445000	22.272324	0.000939	20.718042
192.046566	-2.997100	3.818100	-11.442000	22.285165	0.000940	20.730425
193.047842	-2.986700	3.816600	-11.398000	22.294783	0.000941	20.733419
194.046773	-2.996600	3.815600	-11.432000	22.315920	0.000941	20.722814
195.046854	-2.994100	3.815900	-11.425000	22.331201	0.000942	20.736694
196.050631	-2.980700	3.815500	-11.371000	22.345333	0.000941	20.709592
197.048195	-2.979200	3.817500	-11.372000	22.343863	0.000942	20.714284
198.050982	-2.988300	3.815300	-11.401000	22.363554	0.000941	20.725467
199.047927	-2.960000	3.817500	-11.299000	22.380156	0.000943	20.707953
200.048267	-2.993000	3.815800	-11.420000	22.366592	0.000942	20.729458
201.048690	-2.996100	3.814900	-11.429000	22.382518	0.000945	20.728811
202.052903	-2.983100	3.815400	-11.381000	22.363929	0.000944	20.733904
203.049819	-2.994800	3.814200	-11.422000	22.379535	0.000944	20.722979
204.049566	-3.021400	3.814000	-11.522000	22.403831	0.000944	20.697995
205.051352	-2.987900	3.813800	-11.394000	22.409291	0.000947	20.712473
206.052986	-2.990100	3.813100	-11.401000	22.386564	0.000947	20.731914
207.055821	-2.990500	3.815200	-11.408000	22.424566	0.000947	20.735831
208.052771	-2.984700	3.814000	-11.382000	22.435339	0.000948	20.724807
209.058310	-2.987300	3.812100	-11.386000	22.430929	0.000947	20.728453
210.051239	-2.982900	3.812900	-11.372000	22.443965	0.000949	20.730127
211.052348	-2.988700	3.812800	-11.394000	22.464442	0.000948	20.713649
212.054301	-2.975000	3.814100	-11.346000	22.467387	0.000948	20.720392
213.052418	-2.979100	3.812800	-11.358000	22.462499	0.000950	20.722609
214.052433	-2.986500	3.813400	-11.388000	22.474839	0.000950	20.716001
215.050842	-2.990700	3.811300	-11.395000	22.468284	0.000950	20.736464
216.052683	-3.011900	3.811100	-11.477000	22.449395	0.000949	20.713279
217.053350	-2.992700	3.810600	-11.403000	22.449050	0.000950	20.726211
218.055313	-3.010500	3.810200	-11.470000	22.428666	0.000951	20.736144
219.052860	-3.002300	3.811900	-11.442000	22.466839	0.000951	20.718421
220.054321	-3.038100	3.809100	-11.571000	22.466046	0.000952	20.719523
221.055078	-2.992600	3.811600	-11.406000	22.471801	0.000952	20.705371
222.055137	-3.012800	3.809600	-11.476000	22.499544	0.000954	20.727466
223.063334	-3.016700	3.809500	-11.491000	22.488482	0.000955	20.730613
224.054397	-2.985700	3.811400	-11.379000	22.505324	0.000954	20.726617
225.056221	-2.993600	3.809500	-11.403000	22.495983	0.000955	20.736703
226.056008	-2.989500	3.810300	-11.390000	22.491667	0.000956	20.728587
227.059243	-2.990200	3.810300	-11.393000	22.503786	0.000957	20.739302
228.056723	-2.992400	3.809000	-11.397000	22.499298	0.000957	20.744290
229.059215	-3.001200	3.809000	-11.431000	22.498104	0.000958	20.739302
230.056499	-3.023500	3.807700	-11.512000	22.513063	0.000957	20.732472
231.056278	-3.001000	3.807900	-11.427000	22.503220	0.000957	20.752960
232.055411	-2.988000	3.807500	-11.376000	22.519538	0.000958	20.724257
233.057158	-2.997000	3.807600	-11.410000	22.530353	0.000961	20.727028
234.060210	-3.013100	3.806700	-11.469000	22.566266	0.000960	20.723166
235.056953	-3.012400	3.806400	-11.465000	22.570896	0.000958	20.723062
236.060115	-2.993000	3.807300	-11.395000	22.568184	0.000960	20.753538
237.057309	-3.007300	3.806600	-11.447000	22.584434	0.000959	20.713861
238.057948	-2.990200	3.805800	-11.379000	22.589567	0.000961	20.732754
239.057480	-2.997800	3.805300	-11.406000	22.609500	0.000964	20.735649
240.057478	-2.990600	3.805000	-11.378000	22.601581	0.000963	20.731036
241.058352	-2.999900	3.805700	-11.414000	22.619318	0.000962	20.732206
242.057691	-3.000600	3.805000	-11.417000	22.639452	0.000964	20.720130
243.057838	-3.000700	3.804600	-11.415000	22.632425	0.000963	20.727316
244.058133	-2.987600	3.805700	-11.369000	22.631227	0.000964	20.724693
245.059446	-3.005300	3.805000	-11.434000	22.615709	0.000962	20.732384
246.058383	-3.011100	3.803200	-11.451000	22.629240	0.000965	20.735032
247.059223	-3.007600	3.803800	-11.439000	22.647653	0.000966	20.723128
248.059913	-2.995300	3.803400	-11.392000	22.673063	0.000966	20.754270
249.058540	-2.981100	3.802900	-11.335000	22.680938	0.000966	20.724225
250.063289	-2.978900	3.803300	-11.328000	22.693221	0.000967	20.728942
251.060899	-3.007800	3.802900	-11.437000	22.701643	0.000967	20.738801
252.063157	-3.017800	3.802900	-11.475000	22.713600	0.000968	20.733708
253.060866	-3.007500	3.802000	-11.434000	22.734373	0.000967	20.739343
254.060994	-3.014300	3.803100	-11.462000	22.742702	0.000969	20.729668
255.063437	-2.986000	3.802400	-11.353000	22.729319	0.000968	20.719581
256.064151	-3.010600	3.801800	-11.445000	22.729024	0.000970	20.751056
257.060532	-3.006300	3.803300	-11.432000	22.761014	0.000969	20.736159
258.061113	-3.017100	3.800600	-11.465000	22.763578	0.000972	20.746788
259.061278	-2.996100	3.800900	-11.387000	22.774194	0.000971	20.713798
260.061213	-2.991000	3.801000	-11.367000	22.796865	0.000971	20.751209
261.064040	-2.983600	3.801300	-11.341000	22.810419	0.000972	20.735863
262.061104	-3.022000	3.799500	-11.480000	22.812263	0.000971	20.729175
263.065066	-2.991000	3.800300	-11.365000	22.828853	0.000973	20.742477
264.062069	-3.002000	3.799100	-11.403000	22.828583	0.000973	20.743628
265.059366	-2.986000	3.799600	-11.345000	22.840065	0.000974	20.748967
266.063377	-3.008700	3.799700	-11.430000	22.819644	0.000974	20.737993
267.061874	-3.021200	3.798800	-11.476000	22.806263	0.000978	20.741657
268.064950	-3.007700	3.798700	-11.424000	22.807418	0.000976	20.738073
269.063383	-3.001600	3.797900	-11.399000	22.800564	0.000976	20.749225
270.062920	-3.003800	3.798400	-11.408000	22.832608	0.000977	20.737229
271.063342	-2.988700	3.798400	-11.350000	22.831532	0.000978	20.754644
272.064101	-2.999100	3.799400	-11.394000	22.803139	0.000977	20.753701
