LabVIEW Measurement	
Writer_Version	2
Reader_Version	2
Separator	Tab
Decimal_Separator	.
Multi_Headings	No
X_Columns	One
Time_Pref	Absolute
Operator	admin
Description	Clolumns are: time, Current, Voltage, Power, Battery Temp, and Chamber Temp
Date	2024/08/16
Time	13:06:06.104549407958984375
***End_of_Header***	
	
Channels	6						
Samples	1	1	1	1	1	1	
Date	2024/09/07	2024/09/07	2024/09/07	2024/09/07	2024/09/07	2024/09/07	
Time	10:06:39.5837697982788085938	10:06:39.5897846221923828125	10:06:39.5988030433654785156	10:06:39.5680255889892578125	10:06:39.5680255889892578125	10:06:39.5680255889892578125	
X_Dimension	Time	Time	Time	Time	Time	Time	
X0	0.0000000000000000E+0	0.0000000000000000E+0	0.0000000000000000E+0	0.0000000000000000E+0	0.0000000000000000E+0	0.0000000000000000E+0	
Delta_X	1.000000	1.000000	1.000000	1.000000	1.000000	1.000000	
***End_of_Header***							
X_Value	Untitled	Untitled 1	Untitled 2	Untitled 3	Untitled 4	Untitled 5	Comment
0.000000	0.004400	4.097400	0.018024	20.895121	0.000910	20.699295
1.001083	-3.012000	3.926100	-11.825000	20.888940	0.000910	20.700701
2.001692	-2.990200	3.920100	-11.720000	20.882499	0.000908	20.695207
3.002785	-2.985700	3.913900	-11.685000	20.882899	0.000906	20.684227
4.003664	-2.983100	3.910800	-11.665000	20.903598	0.000907	20.715835
5.002294	-2.966000	3.907100	-11.587000	20.906025	0.000905	20.695502
6.003292	-3.009000	3.903700	-11.745000	20.907447	0.000906	20.708305
7.003608	-2.998400	3.901200	-11.696000	20.897467	0.000905	20.691209
8.004261	-2.980500	3.899500	-11.622000	20.915556	0.000902	20.692706
9.005622	-3.017400	3.896500	-11.756000	20.914355	0.000904	20.697194
10.007493	-2.977000	3.896700	-11.599000	20.926102	0.000903	20.717953
11.005448	-2.999400	3.893500	-11.677000	20.923739	0.000901	20.691406
12.006377	-3.000200	3.892700	-11.678000	20.926780	0.000899	20.700138
13.009615	-3.006000	3.889200	-11.690000	20.921238	0.000901	20.704553
14.006858	-3.011200	3.888300	-11.708000	20.936360	0.000900	20.684113
15.010186	-3.009500	3.887900	-11.699000	20.937814	0.000899	20.692681
16.011000	-2.994500	3.886100	-11.637000	20.940733	0.000899	20.695126
17.007768	-2.989800	3.885400	-11.616000	20.937512	0.000896	20.703759
18.010513	-2.995200	3.883400	-11.630000	20.953035	0.000898	20.709327
19.008649	-2.997400	3.883500	-11.640000	20.941934	0.000897	20.696801
20.009664	-2.994900	3.882500	-11.627000	20.979583	0.000897	20.699369
21.009348	-3.007800	3.880700	-11.671000	20.975194	0.000896	20.722007
22.011195	-2.978200	3.881900	-11.560000	20.981030	0.000896	20.719309
23.011266	-2.984300	3.880600	-11.579000	20.983784	0.000896	20.691241
24.013052	-3.032500	3.878400	-11.759000	20.981684	0.000895	20.707634
25.010663	-2.985300	3.879400	-11.579000	21.001079	0.000893	20.690048
26.009627	-3.001900	3.877700	-11.638000	21.001022	0.000894	20.708010
27.011807	-2.997200	3.877100	-11.620000	21.001971	0.000893	20.695681
28.010488	-2.985300	3.878600	-11.578000	21.029253	0.000893	20.708271
29.010530	-2.994400	3.878200	-11.611000	21.028722	0.000893	20.712482
30.011443	-3.010900	3.876000	-11.668000	21.026205	0.000890	20.700006
31.012376	-3.010800	3.875200	-11.666000	21.040721	0.000894	20.695558
32.011889	-3.001600	3.874200	-11.627000	21.047896	0.000891	20.705581
33.013115	-3.010500	3.872700	-11.658000	21.025036	0.000890	20.705001
34.013365	-2.971000	3.874400	-11.510000	21.040090	0.000891	20.710102
35.013717	-3.002800	3.872300	-11.626000	21.062002	0.000890	20.708785
36.016620	-2.997300	3.872400	-11.605000	21.057964	0.000889	20.685778
37.013620	-2.992400	3.871100	-11.584000	21.079223	0.000891	20.711311
38.017878	-2.975400	3.871500	-11.518000	21.074327	0.000891	20.713053
39.012981	-2.989300	3.870500	-11.569000	21.087257	0.000890	20.709389
40.018903	-2.989600	3.870600	-11.571000	21.086415	0.000888	20.711392
41.016617	-3.004300	3.869300	-11.623000	21.091449	0.000888	20.696038
42.015398	-3.002300	3.868500	-11.613000	21.101804	0.000888	20.707820
43.016376	-2.993500	3.869100	-11.581000	21.114284	0.000890	20.720778
44.019848	-3.008900	3.867600	-11.637000	21.122269	0.000889	20.714065
45.016015	-3.027800	3.867000	-11.708000	21.128104	0.000886	20.687658
46.017534	-3.010500	3.866400	-11.639000	21.164684	0.000887	20.732787
47.017030	-3.004800	3.867100	-11.618000	21.138965	0.000886	20.718913
48.019985	-2.998200	3.866200	-11.591000	21.147758	0.000887	20.730080
49.021630	-2.982300	3.867700	-11.532000	21.161202	0.000887	20.720294
50.015725	-2.995800	3.865700	-11.580000	21.162894	0.000887	20.714874
51.016523	-3.006900	3.866000	-11.623000	21.168337	0.000889	20.711783
52.016257	-3.007700	3.864600	-11.622000	21.178168	0.000887	20.727783
53.017004	-2.984200	3.865200	-11.533000	21.206983	0.000888	20.719149
54.015470	-2.956500	3.865700	-11.428000	21.196261	0.000885	20.718380
55.019256	-2.996800	3.864200	-11.579000	21.195566	0.000885	20.731911
56.016012	-3.003800	3.863900	-11.605000	21.217092	0.000888	20.718356
57.016549	-2.998300	3.864000	-11.585000	21.212033	0.000886	20.702863
58.017975	-3.003400	3.864700	-11.605000	21.222142	0.000885	20.738581
59.018256	-3.014400	3.861600	-11.640000	21.223367	0.000885	20.722737
60.016586	-3.034200	3.861600	-11.716000	21.221766	0.000887	20.725403
61.017480	-2.983300	3.862900	-11.522000	21.247638	0.000886	20.710506
62.016418	-3.007300	3.860900	-11.609000	21.264880	0.000887	20.703573
63.016344	-2.995600	3.861400	-11.566000	21.256938	0.000884	20.735933
64.021020	-2.987600	3.862000	-11.537000	21.259789	0.000886	20.710334
65.018116	-3.008800	3.861400	-11.617000	21.266376	0.000886	20.716450
66.017646	-2.998200	3.859500	-11.570000	21.271761	0.000885	20.744598
67.019883	-3.020300	3.859000	-11.653000	21.293514	0.000885	20.735066
68.020189	-3.003900	3.860500	-11.595000	21.288350	0.000884	20.708086
69.021065	-3.002900	3.859400	-11.588000	21.304415	0.000884	20.735540
70.023079	-3.015800	3.859000	-11.638000	21.310421	0.000884	20.719737
71.021775	-3.010000	3.859600	-11.616000	21.333293	0.000885	20.731714
72.022331	-3.004200	3.858400	-11.591000	21.315177	0.000886	20.729712
73.025821	-3.004200	3.859200	-11.593000	21.325580	0.000885	20.745335
74.024168	-2.988700	3.858400	-11.530000	21.354342	0.000884	20.732859
75.024041	-3.009000	3.857800	-11.607000	21.352373	0.000886	20.744166
76.023734	-2.994900	3.857600	-11.553000	21.362946	0.000886	20.730562
77.025411	-3.016100	3.858000	-11.635000	21.359842	0.000884	20.726033
78.024932	-2.996400	3.857200	-11.556000	21.358126	0.000885	20.754663
79.025914	-2.997700	3.856600	-11.560000	21.389274	0.000883	20.722763
80.024257	-2.984000	3.855800	-11.505000	21.406539	0.000886	20.740038
81.027410	-3.005700	3.856600	-11.589000	21.407258	0.000885	20.730800
82.035793	-2.971700	3.857000	-11.461000	21.411842	0.000884	20.742025
83.027313	-3.007000	3.855400	-11.592000	21.403042	0.000885	20.761670
84.026850	-3.008700	3.855400	-11.599000	21.417856	0.000884	20.727652
85.028149	-3.011100	3.854500	-11.605000	21.410273	0.000884	20.740455
86.032434	-2.985000	3.856300	-11.510000	21.420748	0.000885	20.735762
87.027843	-3.009400	3.856500	-11.605000	21.414081	0.000885	20.740946
88.031091	-3.002900	3.855700	-11.576000	21.431223	0.000887	20.758098
89.029456	-3.008300	3.853800	-11.593000	21.447230	0.000885	20.739025
90.027813	-3.004400	3.854800	-11.581000	21.444060	0.000886	20.747233
91.032742	-2.997100	3.853900	-11.550000	21.481423	0.000885	20.745263
92.029645	-3.005700	3.853300	-11.581000	21.470531	0.000884	20.757125
93.030622	-3.015500	3.853500	-11.618000	21.468873	0.000885	20.742189
94.031655	-2.998100	3.852400	-11.547000	21.474911	0.000885	20.744437
95.029958	-2.999100	3.852200	-11.552000	21.503343	0.000884	20.763404
96.030936	-2.993100	3.851800	-11.527000	21.495067	0.000886	20.748484
97.034387	-3.000600	3.852000	-11.557000	21.503245	0.000886	20.741020
98.032106	-2.995900	3.851700	-11.538000	21.534674	0.000887	20.740227
99.031777	-3.001400	3.852200	-11.560000	21.543744	0.000887	20.749302
100.033474	-3.011200	3.852800	-11.601000	21.556071	0.000885	20.730342
101.032021	-3.024200	3.850100	-11.642000	21.538497	0.000885	20.740733
102.032527	-3.003800	3.851500	-11.568000	21.589109	0.000887	20.757714
103.034613	-2.989500	3.851900	-11.513000	21.547633	0.000886	20.745133
104.033410	-2.986700	3.850900	-11.499000	21.581511	0.000886	20.752956
105.033897	-3.005900	3.849900	-11.571000	21.571765	0.000888	20.752685
106.035345	-2.991600	3.851100	-11.520000	21.583357	0.000885	20.767132
107.034389	-2.997200	3.849700	-11.537000	21.575197	0.000887	20.768922
108.034657	-2.961600	3.851300	-11.405000	21.595162	0.000889	20.759029
109.036289	-2.996800	3.851200	-11.540000	21.613992	0.000887	20.760803
110.034584	-3.002100	3.849100	-11.554000	21.588022	0.000889	20.761842
111.038357	-3.005500	3.849500	-11.567000	21.613739	0.000888	20.741109
112.038538	-2.989100	3.850200	-11.507000	21.626213	0.000888	20.752644
113.034792	-3.004000	3.848300	-11.559000	21.635984	0.000889	20.777595
114.037075	-2.994200	3.849700	-11.525000	21.635861	0.000891	20.756609
115.039078	-3.004900	3.848400	-11.562000	21.659731	0.000889	20.751099
116.037074	-2.985600	3.848000	-11.486000	21.634317	0.000893	20.755538
117.038201	-3.001900	3.848700	-11.552000	21.659853	0.000891	20.761653
118.039751	-2.995000	3.849400	-11.528000	21.667319	0.000891	20.763909
119.038360	-3.015200	3.846500	-11.597000	21.690780	0.000890	20.763680
120.039202	-3.015200	3.847300	-11.599000	21.710475	0.000892	20.759683
121.041055	-2.980600	3.849600	-11.472000	21.712149	0.000891	20.757091
122.038954	-3.001900	3.847600	-11.550000	21.704242	0.000892	20.749652
123.040085	-2.997800	3.847500	-11.533000	21.734719	0.000892	20.773515
124.053564	-3.002400	3.847000	-11.549000	21.738909	0.000891	20.756371
125.041183	-3.005300	3.846300	-11.559000	21.746008	0.000892	20.763002
126.039664	-3.009100	3.845800	-11.571000	21.736614	0.000892	20.770196
127.042396	-2.999800	3.846500	-11.537000	21.760694	0.000893	20.759683
128.040056	-3.003800	3.846200	-11.552000	21.761821	0.000892	20.785467
129.042320	-3.008200	3.844200	-11.562000	21.751742	0.000893	20.769215
130.044215	-2.990200	3.845200	-11.496000	21.767450	0.000893	20.763125
131.042289	-2.987500	3.845200	-11.486000	21.787274	0.000894	20.756413
132.042842	-3.017500	3.844700	-11.600000	21.768520	0.000895	20.771783
133.042821	-2.971000	3.844800	-11.421000	21.804370	0.000894	20.745548
134.043250	-2.983100	3.844700	-11.468000	21.763007	0.000894	20.771006
135.045039	-2.997200	3.843200	-11.518000	21.788516	0.000894	20.782786
136.045186	-3.009400	3.843600	-11.565000	21.810185	0.000897	20.774603
137.044900	-3.001200	3.844100	-11.536000	21.811606	0.000897	20.797363
138.045818	-3.007800	3.844400	-11.562000	21.779637	0.000895	20.782909
139.045496	-3.003200	3.842600	-11.538000	21.807082	0.000896	20.777661
140.045557	-3.000100	3.843400	-11.529000	21.806967	0.000896	20.768537
141.044364	-2.991800	3.843500	-11.498000	21.815617	0.000895	20.788575
142.044945	-2.996200	3.843000	-11.514000	21.818933	0.000897	20.787152
143.044167	-2.988600	3.843700	-11.486000	21.821677	0.000897	20.806968
144.045021	-3.019200	3.840900	-11.595000	21.837123	0.000897	20.768849
145.046521	-2.992200	3.842100	-11.495000	21.852118	0.000896	20.800927
146.045470	-3.017600	3.840800	-11.589000	21.870863	0.000899	20.779386
147.049043	-2.991900	3.840800	-11.489000	21.879039	0.000897	20.781880
148.046546	-2.998500	3.840600	-11.514000	21.887720	0.000899	20.778241
149.046576	-2.995100	3.840500	-11.502000	21.911479	0.000899	20.765513
150.048209	-3.019800	3.839100	-11.592000	21.914289	0.000898	20.794404
151.049496	-3.003700	3.840300	-11.533000	21.913725	0.000900	20.795736
152.045753	-2.995000	3.840400	-11.502000	21.915318	0.000899	20.796382
153.046235	-3.020800	3.839800	-11.598000	21.940374	0.000899	20.809135
154.046139	-2.994700	3.840800	-11.501000	21.922374	0.000899	20.780212
155.050815	-3.024900	3.838600	-11.610000	21.951816	0.000900	20.802096
156.049160	-3.011500	3.840000	-11.564000	21.964605	0.000903	20.794984
157.048246	-2.981700	3.839200	-11.447000	21.964286	0.000901	20.801303
158.047113	-3.001400	3.838700	-11.521000	21.974241	0.000904	20.791353
159.048319	-2.988600	3.838200	-11.470000	21.980661	0.000902	20.778340
160.049333	-2.982400	3.839100	-11.449000	22.000759	0.000904	20.782885
161.048721	-2.995600	3.838200	-11.497000	22.005225	0.000904	20.798188
162.047824	-2.983600	3.839300	-11.454000	21.982122	0.000904	20.785966
163.050117	-2.994400	3.836900	-11.488000	22.003731	0.000906	20.785312
164.048261	-2.986000	3.838700	-11.461000	21.976209	0.000904	20.802807
165.049376	-3.007100	3.837300	-11.538000	21.996177	0.000904	20.809993
166.049110	-3.010700	3.836500	-11.550000	21.974617	0.000905	20.781298
167.053473	-2.989100	3.839700	-11.476000	21.986271	0.000905	20.795810
168.052590	-2.998900	3.835800	-11.502000	21.998881	0.000906	20.806062
169.049470	-2.990700	3.837500	-11.475000	22.012877	0.000906	20.788779
170.052919	-2.991300	3.837600	-11.479000	22.006222	0.000906	20.787332
171.052633	-3.002100	3.836700	-11.517000	22.015042	0.000906	20.807541
172.049929	-3.004000	3.835200	-11.519000	22.032027	0.000906	20.812216
173.055060	-3.000300	3.835700	-11.508000	22.031048	0.000907	20.821667
174.052725	-2.997100	3.836200	-11.497000	22.048899	0.000910	20.803028
175.051352	-2.997400	3.835900	-11.497000	22.048425	0.000906	20.821520
176.054228	-2.986800	3.835200	-11.454000	22.050394	0.000909	20.814955
177.057091	-3.002600	3.834600	-11.513000	22.054158	0.000908	20.816353
178.053097	-3.018600	3.833900	-11.572000	22.057775	0.000909	20.811440
179.059098	-3.009700	3.834800	-11.542000	22.056379	0.000912	20.810990
180.057303	-3.005500	3.834300	-11.523000	22.091729	0.000910	20.797542
181.053998	-3.014100	3.833100	-11.552000	22.069992	0.000912	20.816083
182.056369	-3.007400	3.833800	-11.529000	22.075153	0.000912	20.809396
183.057853	-3.007300	3.832800	-11.525000	22.103791	0.000913	20.811988
184.056238	-3.001200	3.832100	-11.500000	22.114937	0.000913	20.822198
185.058596	-3.000600	3.834100	-11.503000	22.110201	0.000915	20.810818
186.057528	-3.014400	3.832100	-11.550000	22.108608	0.000911	20.827716
187.058830	-2.982100	3.833000	-11.429000	22.116586	0.000913	20.836651
188.058586	-2.997100	3.831300	-11.481000	22.120677	0.000914	20.812772
189.060174	-2.977400	3.833300	-11.412000	22.133088	0.000915	20.829465
190.059094	-3.001800	3.830900	-11.496000	22.152783	0.000916	20.796552
191.067291	-2.987100	3.832700	-11.448000	22.172699	0.000916	20.827396
192.062519	-2.981200	3.832800	-11.425000	22.151608	0.000915	20.827617
193.057963	-2.983000	3.831600	-11.429000	22.171082	0.000915	20.832416
194.060246	-2.992700	3.831200	-11.465000	22.142740	0.000918	20.827274
195.063997	-2.997700	3.830600	-11.482000	22.158614	0.000916	20.836054
196.057478	-2.996900	3.830300	-11.478000	22.179476	0.000917	20.828018
197.060185	-3.009100	3.830100	-11.523000	22.209515	0.000917	20.824903
198.062386	-2.990200	3.831300	-11.455000	22.198697	0.000917	20.826399
199.057384	-3.011500	3.829700	-11.531000	22.204951	0.000920	20.831239
200.064979	-2.999300	3.829800	-11.486000	22.243636	0.000917	20.815919
201.061465	-3.001500	3.830000	-11.494000	22.243570	0.000917	20.801154
202.058606	-3.005200	3.830500	-11.511000	22.276989	0.000919	20.821338
203.058918	-3.002000	3.829100	-11.494000	22.257230	0.000919	20.820995
204.059137	-3.027400	3.828300	-11.588000	22.288859	0.000917	20.821845
205.059282	-3.016200	3.828100	-11.545000	22.297604	0.000922	20.811160
206.062346	-3.004400	3.827200	-11.498000	22.292648	0.000923	20.819948
207.062284	-3.037600	3.827800	-11.626000	22.318063	0.000923	20.817897
208.060260	-3.002400	3.827500	-11.490000	22.316552	0.000922	20.833927
209.060419	-2.996500	3.828400	-11.470000	22.326170	0.000923	20.817005
210.059928	-3.003300	3.828600	-11.497000	22.325582	0.000924	20.821631
211.063924	-2.996300	3.827100	-11.466000	22.344294	0.000923	20.826618
212.064489	-2.999700	3.827400	-11.480000	22.337020	0.000925	20.805584
213.061307	-2.994200	3.827700	-11.460000	22.335207	0.000923	20.826054
214.064521	-3.014200	3.825400	-11.529000	22.335827	0.000924	20.817192
215.061388	-3.005500	3.826300	-11.498000	22.327353	0.000927	20.822931
216.062068	-2.996000	3.826600	-11.463000	22.355649	0.000926	20.810962
217.061961	-2.975500	3.827300	-11.386000	22.344473	0.000926	20.806410
218.065137	-3.010900	3.826100	-11.519000	22.349690	0.000928	20.803098
219.061616	-3.016100	3.824400	-11.533000	22.341795	0.000927	20.799934
220.061752	-3.011600	3.824200	-11.515000	22.332602	0.000929	20.813014
221.064469	-3.017600	3.823700	-11.537000	22.342896	0.000928	20.800563
222.063148	-3.003700	3.824000	-11.483000	22.341876	0.000928	20.802386
223.063266	-2.997800	3.826200	-11.469000	22.337288	0.000930	20.819603
224.065911	-2.998000	3.824900	-11.466000	22.347713	0.000929	20.797800
225.062045	-2.999600	3.825400	-11.473000	22.376670	0.000931	20.797873
226.063721	-2.990200	3.825200	-11.437000	22.380385	0.000930	20.799696
227.068059	-3.003800	3.823400	-11.483000	22.377944	0.000931	20.803890
228.062460	-2.984300	3.822900	-11.407000	22.379241	0.000933	20.785749
229.064503	-2.988200	3.823700	-11.424000	22.380319	0.000932	20.798208
230.065348	-2.995200	3.824900	-11.455000	22.368195	0.000934	20.778006
231.065618	-2.988500	3.823100	-11.424000	22.384767	0.000933	20.791757
232.064320	-2.997900	3.823100	-11.460000	22.385297	0.000933	20.783279
233.067445	-2.981500	3.823100	-11.397000	22.372334	0.000934	20.797798
234.064072	-2.998600	3.822000	-11.460000	22.416499	0.000935	20.772324
235.065094	-3.007900	3.823200	-11.499000	22.424303	0.000935	20.794364
236.066984	-3.012400	3.822200	-11.513000	22.428694	0.000934	20.791649
237.063543	-3.007000	3.822600	-11.494000	22.435200	0.000937	20.770664
238.064938	-2.997800	3.821300	-11.455000	22.425689	0.000938	20.765406
239.066529	-3.005100	3.821800	-11.482000	22.453085	0.000936	20.780514
240.064960	-2.988100	3.819500	-11.412000	22.466661	0.000937	20.774669
241.064920	-2.993000	3.822000	-11.439000	22.457273	0.000936	20.790397
242.067620	-2.974400	3.822900	-11.369000	22.501974	0.000938	20.782533
243.066079	-3.002800	3.820100	-11.470000	22.481419	0.000938	20.793242
244.065532	-3.012200	3.820500	-11.506000	22.513965	0.000938	20.775102
245.068713	-3.012000	3.820400	-11.506000	22.515891	0.000940	20.777979
246.070309	-2.995700	3.819400	-11.441000	22.521327	0.000940	20.796225
247.067260	-2.999400	3.820800	-11.459000	22.521253	0.000940	20.796152
248.069120	-2.980600	3.820000	-11.384000	22.501352	0.000940	20.791393
249.070885	-3.012200	3.818100	-11.499000	22.520143	0.000941	20.766590
250.070198	-2.994400	3.818900	-11.434000	22.539659	0.000944	20.781395
251.068457	-2.975000	3.820700	-11.365000	22.539627	0.000943	20.773776
252.072487	-3.001800	3.819300	-11.464000	22.531839	0.000942	20.773088
253.069843	-3.015300	3.817900	-11.512000	22.514354	0.000945	20.781181
254.070401	-3.030500	3.815400	-11.560000	22.534182	0.000944	20.760736
255.072534	-2.992100	3.817500	-11.421000	22.527496	0.000943	20.763522
256.069864	-3.016100	3.817100	-11.511000	22.552857	0.000944	20.772802
257.069989	-3.024100	3.816200	-11.540000	22.554930	0.000945	20.780568
258.072407	-2.970900	3.816600	-11.337000	22.583286	0.000947	20.766294
259.070248	-3.013400	3.816400	-11.498000	22.570585	0.000946	20.777755
260.071292	-3.009400	3.814600	-11.478000	22.579524	0.000947	20.776276
261.074381	-3.006500	3.816800	-11.474000	22.571410	0.000949	20.755346
262.069563	-2.989100	3.816400	-11.407000	22.549510	0.000947	20.765181
263.072783	-3.009700	3.814500	-11.480000	22.578160	0.000948	20.757840
264.070734	-3.000500	3.815600	-11.448000	22.565729	0.000949	20.768623
265.071754	-2.991200	3.816100	-11.413000	22.561427	0.000949	20.758150
266.071258	-3.009900	3.815900	-11.484000	22.570365	0.000949	20.768999
267.075284	-2.996300	3.815500	-11.431000	22.576257	0.000947	20.759728
268.070677	-3.003700	3.813600	-11.454000	22.578127	0.000950	20.766816
269.074918	-3.031300	3.814800	-11.562000	22.559884	0.000952	20.767985
270.073935	-2.993800	3.814100	-11.418000	22.602369	0.000952	20.759327
271.072381	-2.983000	3.815300	-11.380000	22.621655	0.000951	20.753514
272.072478	-2.987300	3.814000	-11.393000	22.615158	0.000953	20.749851
