LabVIEW Measurement	
Writer_Version	2
Reader_Version	2
Separator	Tab
Decimal_Separator	.
Multi_Headings	No
X_Columns	One
Time_Pref	Absolute
Operator	admin
Description	Clolumns are: time, Current, Voltage, Power, Battery Temp, and Chamber Temp
Date	2024/08/16
Time	13:06:06.104549407958984375
***End_of_Header***	
	
Channels	6						
Samples	1	1	1	1	1	1	
Date	2024/09/08	2024/09/08	2024/09/08	2024/09/08	2024/09/08	2024/09/08	
Time	12:46:05.8591313362121582031	12:46:05.8652615547180175781	12:46:05.8701357841491699219	12:46:05.8440365791320800781	12:46:05.8440365791320800781	12:46:05.8440365791320800781	
X_Dimension	Time	Time	Time	Time	Time	Time	
X0	0.0000000000000000E+0	0.0000000000000000E+0	0.0000000000000000E+0	0.0000000000000000E+0	0.0000000000000000E+0	0.0000000000000000E+0	
Delta_X	1.000000	1.000000	1.000000	1.000000	1.000000	1.000000	
***End_of_Header***							
X_Value	Untitled	Untitled 1	Untitled 2	Untitled 3	Untitled 4	Untitled 5	Comment
0.000000	0.009976	4.091100	0.040724	20.973831	0.000904	20.783709
1.001289	-3.007700	3.918800	-11.785000	20.993595	0.000905	20.783087
2.004097	-3.025500	3.912100	-11.834000	20.983732	0.000906	20.799775
3.003238	-2.985600	3.907700	-11.666000	20.986010	0.000904	20.788303
4.002145	-2.991100	3.905400	-11.680000	20.998478	0.000904	20.769004
5.005174	-2.988500	3.902500	-11.661000	20.985247	0.000900	20.806032
6.002853	-2.977900	3.898100	-11.607000	20.995904	0.000901	20.804837
7.003735	-2.997400	3.896000	-11.677000	21.003545	0.000902	20.795409
8.004717	-3.007400	3.894300	-11.711000	21.013574	0.000901	20.787423
9.006409	-3.018200	3.891600	-11.745000	21.011475	0.000900	20.807134
10.008461	-3.009800	3.889300	-11.705000	21.008255	0.000899	20.795379
11.005275	-3.011800	3.888800	-11.711000	21.010767	0.000899	20.796944
12.005090	-2.990100	3.886900	-11.621000	21.019005	0.000897	20.795700
13.010018	-2.994600	3.886900	-11.639000	21.028985	0.000898	20.799517
14.004902	-3.006000	3.885900	-11.678000	21.031256	0.000899	20.794677
15.005652	-2.983600	3.885100	-11.589000	21.057926	0.000895	20.802861
16.005528	-3.016700	3.882500	-11.711000	21.015182	0.000896	20.808471
17.008722	-3.024400	3.882300	-11.738000	21.044530	0.000897	20.800367
18.005273	-3.012300	3.879400	-11.685000	21.058598	0.000898	20.790256
19.009135	-3.006600	3.879500	-11.662000	21.040953	0.000894	20.810540
20.004174	-2.993300	3.878600	-11.609000	21.071065	0.000895	20.805571
21.008766	-3.006200	3.877700	-11.656000	21.070240	0.000895	20.811384
22.010346	-3.013200	3.876000	-11.678000	21.070265	0.000893	20.812357
23.007249	-2.997900	3.875900	-11.619000	21.085163	0.000895	20.792172
24.012665	-2.993400	3.875300	-11.598000	21.088629	0.000892	20.812708
25.007745	-2.985700	3.875700	-11.571000	21.092969	0.000893	20.806618
26.013221	-3.007300	3.872100	-11.643000	21.106286	0.000893	20.821360
27.011365	-2.976500	3.873600	-11.528000	21.111801	0.000890	20.815972
28.010521	-2.991500	3.871700	-11.581000	21.132880	0.000890	20.828522
29.012258	-3.010200	3.872100	-11.654000	21.100899	0.000891	20.814076
30.013981	-3.007200	3.870600	-11.638000	21.135053	0.000888	20.804617
31.010219	-3.003400	3.870500	-11.623000	21.127414	0.000890	20.809304
32.011731	-2.978400	3.872200	-11.532000	21.135066	0.000888	20.842562
33.011317	-3.008800	3.868400	-11.638000	21.149015	0.000889	20.797247
34.012268	-3.011800	3.868500	-11.649000	21.128282	0.000888	20.823448
35.012085	-3.003200	3.867600	-11.613000	21.158717	0.000887	20.828762
36.011461	-3.007000	3.867700	-11.630000	21.166696	0.000888	20.825838
37.011382	-3.004700	3.867100	-11.619000	21.174409	0.000886	20.817432
38.011148	-3.002700	3.865900	-11.607000	21.173806	0.000887	20.824415
39.014603	-3.012100	3.865300	-11.641000	21.186302	0.000888	20.817950
40.019527	-3.009900	3.866200	-11.636000	21.181469	0.000888	20.822599
41.010531	-3.024000	3.863300	-11.682000	21.209158	0.000888	20.830856
42.014753	-2.995400	3.866100	-11.580000	21.212298	0.000886	20.843005
43.014756	-2.983500	3.865500	-11.532000	21.202147	0.000887	20.826213
44.021790	-2.977800	3.865600	-11.509000	21.216583	0.000890	20.822162
45.016393	-2.996700	3.864400	-11.580000	21.219555	0.000886	20.827981
46.015053	-2.998600	3.861700	-11.579000	21.232230	0.000884	20.822168
47.013893	-3.006800	3.863100	-11.614000	21.222202	0.000886	20.843904
48.013438	-3.002400	3.862400	-11.595000	21.250832	0.000886	20.814225
49.014698	-3.016300	3.862300	-11.648000	21.260914	0.000886	20.813406
50.020358	-2.982600	3.862300	-11.518000	21.273434	0.000886	20.838733
51.015054	-3.022500	3.861100	-11.668000	21.268196	0.000887	20.823535
52.019336	-2.993600	3.861300	-11.558000	21.283689	0.000887	20.856103
53.014329	-2.980500	3.860900	-11.507000	21.289998	0.000884	20.825432
54.013534	-2.989400	3.861100	-11.541000	21.286680	0.000884	20.844872
55.015716	-2.983800	3.860300	-11.517000	21.296713	0.000885	20.814132
56.015229	-2.985000	3.860800	-11.523000	21.292343	0.000887	20.815924
57.016459	-3.021200	3.860000	-11.660000	21.329607	0.000885	20.840876
58.015663	-3.008300	3.860200	-11.611000	21.321248	0.000886	20.822557
59.016734	-3.004600	3.857600	-11.589000	21.343351	0.000886	20.826651
60.017836	-2.990700	3.859400	-11.541000	21.332549	0.000888	20.847138
61.016285	-2.995700	3.857500	-11.555000	21.360086	0.000885	20.859989
62.016381	-3.018400	3.856600	-11.640000	21.362209	0.000886	20.843148
63.018449	-2.995800	3.857300	-11.555000	21.340827	0.000888	20.834084
64.016623	-2.983700	3.858400	-11.512000	21.371725	0.000885	20.841763
65.020344	-3.007300	3.856600	-11.596000	21.391857	0.000887	20.852896
66.016780	-2.994400	3.856200	-11.546000	21.385869	0.000885	20.837896
67.020052	-3.004900	3.857300	-11.589000	21.391125	0.000886	20.846000
68.017883	-2.995900	3.855600	-11.550000	21.393975	0.000886	20.840790
69.017277	-2.998700	3.854900	-11.558000	21.406069	0.000885	20.840088
70.019622	-3.014700	3.856300	-11.624000	21.414821	0.000888	20.856905
71.016680	-2.987700	3.855100	-11.517000	21.442608	0.000889	20.841086
72.019048	-3.004600	3.853800	-11.579000	21.445446	0.000889	20.843451
73.016183	-3.003800	3.855200	-11.578000	21.445470	0.000888	20.843002
74.019080	-3.025400	3.853600	-11.658000	21.442178	0.000887	20.843500
75.020693	-2.980100	3.856300	-11.490000	21.452874	0.000889	20.877435
76.016217	-3.018100	3.852300	-11.625000	21.471558	0.000887	20.866733
77.018429	-3.019700	3.852800	-11.633000	21.476771	0.000888	20.839233
78.017112	-2.985700	3.853300	-11.503000	21.474550	0.000887	20.839381
79.018205	-3.040500	3.851600	-11.709000	21.490987	0.000889	20.858198
80.020575	-3.001800	3.853600	-11.566000	21.497566	0.000887	20.868100
81.022694	-3.005200	3.853100	-11.578000	21.512933	0.000886	20.895802
82.018502	-3.003200	3.851500	-11.566000	21.517400	0.000887	20.884152
83.018450	-3.002500	3.852900	-11.567000	21.534810	0.000888	20.884503
84.019350	-3.009600	3.851500	-11.590000	21.521364	0.000887	20.868204
85.019447	-2.994100	3.851800	-11.531000	21.541216	0.000890	20.867681
86.023890	-3.006500	3.852600	-11.582000	21.533856	0.000891	20.852731
87.020206	-2.980700	3.852000	-11.480000	21.524995	0.000888	20.856666
88.020217	-2.994700	3.851100	-11.532000	21.559518	0.000889	20.881726
89.020071	-2.966600	3.850900	-11.423000	21.551783	0.000888	20.876831
90.019810	-2.999800	3.850400	-11.549000	21.570663	0.000889	20.849732
91.021413	-2.989400	3.850500	-11.510000	21.601862	0.000888	20.873365
92.020954	-2.998500	3.851600	-11.548000	21.590780	0.000889	20.871284
93.020273	-2.993100	3.849000	-11.519000	21.609308	0.000888	20.859480
94.021874	-2.968300	3.851000	-11.429000	21.620526	0.000889	20.869758
95.022577	-2.993300	3.850200	-11.523000	21.615561	0.000889	20.864789
96.020914	-2.983600	3.848500	-11.481000	21.624963	0.000890	20.899800
97.029490	-2.990000	3.850000	-11.510000	21.637504	0.000889	20.873471
98.021704	-2.997300	3.847700	-11.532000	21.641941	0.000891	20.877436
99.026013	-2.998000	3.848100	-11.536000	21.639719	0.000888	20.884222
100.020836	-2.999200	3.847500	-11.539000	21.657300	0.000889	20.882375
101.022751	-3.001000	3.848900	-11.549000	21.669194	0.000890	20.862511
102.026081	-3.006800	3.845800	-11.563000	21.664149	0.000889	20.885436
103.023556	-3.015800	3.847500	-11.602000	21.675200	0.000890	20.861883
104.027568	-2.997600	3.847800	-11.531000	21.683826	0.000890	20.878576
105.025058	-2.983000	3.847000	-11.474000	21.690958	0.000889	20.872911
106.025682	-2.999200	3.846600	-11.536000	21.702077	0.000890	20.884038
107.027946	-3.011900	3.846200	-11.583000	21.711078	0.000890	20.881667
108.025517	-2.987000	3.847000	-11.490000	21.724640	0.000890	20.876748
109.026583	-3.015500	3.846100	-11.598000	21.701025	0.000891	20.863072
110.029088	-3.001300	3.846000	-11.542000	21.725040	0.000891	20.887105
111.025154	-2.997900	3.845300	-11.526000	21.720652	0.000893	20.862327
112.025283	-3.018500	3.845300	-11.606000	21.730232	0.000892	20.885189
113.026608	-2.983700	3.845700	-11.473000	21.726633	0.000891	20.885855
114.027037	-3.010900	3.845300	-11.576000	21.742520	0.000893	20.877099
115.027045	-2.989300	3.845900	-11.496000	21.761366	0.000892	20.873676
116.026122	-3.012400	3.843500	-11.577000	21.748679	0.000892	20.890374
117.027481	-3.016400	3.843300	-11.591000	21.753090	0.000891	20.874876
118.030054	-2.998800	3.844400	-11.528000	21.786875	0.000893	20.866964
119.027703	-2.999100	3.843500	-11.526000	21.782088	0.000892	20.870708
120.029540	-2.996500	3.844000	-11.517000	21.799819	0.000894	20.870436
121.025920	-3.019500	3.842200	-11.600000	21.806353	0.000895	20.856588
122.027117	-2.999400	3.842400	-11.523000	21.805603	0.000894	20.872906
123.028042	-3.018600	3.842300	-11.597000	21.824355	0.000893	20.857062
124.029550	-3.009600	3.842700	-11.564000	21.811657	0.000894	20.857629
125.029726	-3.013700	3.842300	-11.578000	21.818689	0.000895	20.892166
126.029714	-3.024300	3.840800	-11.615000	21.829960	0.000897	20.884956
127.031006	-3.006700	3.840600	-11.546000	21.824048	0.000894	20.845850
128.028852	-3.001500	3.842000	-11.531000	21.830741	0.000896	20.859661
129.030331	-2.996200	3.841700	-11.509000	21.818265	0.000894	20.849545
130.028480	-2.988500	3.840900	-11.477000	21.827819	0.000897	20.851521
131.028555	-2.983900	3.841400	-11.461000	21.842904	0.000895	20.851447
132.031392	-2.975900	3.841900	-11.431000	21.852403	0.000897	20.856213
133.034398	-2.982300	3.839400	-11.449000	21.854692	0.000897	20.858504
134.032417	-2.994500	3.839900	-11.498000	21.874939	0.000901	20.845579
135.029353	-3.014800	3.838900	-11.571000	21.874145	0.000898	20.864224
136.029021	-2.985500	3.840600	-11.465000	21.882820	0.000898	20.886655
137.030909	-2.985500	3.840000	-11.464000	21.887790	0.000900	20.865553
138.033454	-2.997000	3.838700	-11.503000	21.907956	0.000899	20.858238
139.029383	-3.018000	3.838600	-11.583000	21.905711	0.000900	20.846034
140.033007	-2.998300	3.837600	-11.506000	21.912392	0.000900	20.840394
141.030365	-2.961600	3.840900	-11.374000	21.929278	0.000900	20.837382
142.029284	-2.996400	3.839000	-11.503000	21.942437	0.000902	20.843441
143.032480	-3.001600	3.837300	-11.517000	21.958025	0.000902	20.855251
144.030558	-3.008600	3.838500	-11.547000	21.927955	0.000901	20.837481
145.033767	-2.983700	3.839200	-11.453000	21.971159	0.000900	20.833312
146.031620	-2.998900	3.837800	-11.508000	21.939650	0.000904	20.835910
147.031405	-3.007100	3.837200	-11.538000	21.965579	0.000900	20.844321
148.037656	-3.005000	3.837000	-11.529000	21.955459	0.000903	20.862640
149.032227	-3.015000	3.837200	-11.568000	21.949370	0.000903	20.856545
150.033130	-3.001400	3.838000	-11.519000	21.951319	0.000904	20.847591
151.031257	-3.008900	3.837300	-11.544000	21.948754	0.000903	20.862566
152.031897	-3.008800	3.838500	-11.548000	21.969916	0.000902	20.851507
153.035232	-3.011400	3.835200	-11.548000	21.987663	0.000903	20.854100
154.034208	-2.987400	3.836400	-11.459000	21.979592	0.000904	20.843176
155.036014	-3.016100	3.835100	-11.566000	21.995050	0.000905	20.851538
156.034718	-3.005500	3.835000	-11.524000	21.992337	0.000905	20.828434
157.034384	-3.015600	3.834600	-11.563000	22.023076	0.000905	20.839764
158.037723	-2.987200	3.836700	-11.460000	22.020929	0.000903	20.837141
159.038278	-2.991600	3.834200	-11.469000	22.032943	0.000908	20.823564
160.035752	-2.992400	3.835100	-11.474000	22.028507	0.000904	20.809641
161.034570	-3.002000	3.832100	-11.502000	22.032302	0.000904	20.839518
162.034396	-2.997100	3.833800	-11.489000	22.036234	0.000907	20.843453
163.035836	-3.003200	3.834500	-11.515000	22.040108	0.000906	20.838323
164.040814	-3.009200	3.831900	-11.530000	22.037808	0.000905	20.814684
165.040949	-2.989500	3.832900	-11.458000	22.062068	0.000909	20.836599
166.041348	-3.007300	3.831500	-11.521000	22.070125	0.000909	20.828544
167.036458	-2.999300	3.832300	-11.494000	22.094950	0.000909	20.827319
168.038386	-2.974300	3.833400	-11.400000	22.109614	0.000910	20.829671
169.039603	-2.998300	3.831900	-11.487000	22.109638	0.000908	20.835859
170.036463	-3.014400	3.832000	-11.549000	22.104281	0.000910	20.823384
171.037123	-3.011400	3.831200	-11.535000	22.128386	0.000911	20.816222
172.038365	-3.007700	3.831200	-11.521000	22.119417	0.000914	20.847072
173.037129	-3.018100	3.830200	-11.559000	22.131006	0.000911	20.825483
174.037138	-3.012100	3.830800	-11.537000	22.135852	0.000912	20.827490
175.039130	-3.009600	3.830700	-11.528000	22.139364	0.000914	20.819626
176.039157	-3.009400	3.830100	-11.525000	22.118684	0.000913	20.786121
177.039392	-3.020000	3.829600	-11.564000	22.130322	0.000912	20.822902
178.037317	-2.994500	3.830400	-11.470000	22.109612	0.000914	20.823031
179.036965	-3.024800	3.829100	-11.581000	22.114827	0.000914	20.793639
180.038438	-3.003300	3.829800	-11.502000	22.137935	0.000915	20.809662
181.037205	-3.005400	3.828300	-11.505000	22.139682	0.000913	20.817575
182.040040	-2.988900	3.830200	-11.447000	22.138169	0.000915	20.820327
183.037094	-3.024900	3.827700	-11.577000	22.143107	0.000916	20.830486
184.038260	-3.009900	3.829300	-11.525000	22.173970	0.000913	20.808281
185.039464	-2.994300	3.829300	-11.464000	22.169043	0.000916	20.828478
186.040752	-3.011200	3.828500	-11.526000	22.212139	0.000915	20.820418
187.036976	-3.015500	3.827000	-11.540000	22.199506	0.000919	20.806821
188.043440	-2.997800	3.828200	-11.475000	22.206689	0.000917	20.782719
189.038466	-2.990200	3.829200	-11.448000	22.216388	0.000917	20.795749
190.046278	-3.010100	3.827800	-11.521000	22.218411	0.000917	20.813896
191.042086	-2.981700	3.827600	-11.412000	22.222003	0.000919	20.774818
192.036905	-3.006700	3.825900	-11.502000	22.217746	0.000920	20.819868
193.043995	-2.997600	3.827400	-11.471000	22.223958	0.000921	20.803802
194.038896	-3.020300	3.825600	-11.553000	22.247242	0.000919	20.819529
195.038158	-3.018400	3.825700	-11.547000	22.233927	0.000921	20.799559
196.041922	-3.013700	3.825900	-11.529000	22.256289	0.000921	20.799664
197.038298	-3.016300	3.825400	-11.538000	22.262949	0.000921	20.810600
198.038097	-2.999500	3.826100	-11.475000	22.268360	0.000921	20.798949
199.039301	-3.009800	3.825300	-11.513000	22.285561	0.000923	20.787723
200.039322	-3.026000	3.824600	-11.572000	22.299792	0.000922	20.792015
201.037409	-2.998400	3.824200	-11.464000	22.294140	0.000922	20.797261
202.042191	-3.006000	3.825200	-11.497000	22.306808	0.000924	20.787186
203.040797	-2.988900	3.825100	-11.431000	22.319046	0.000923	20.793276
204.043209	-3.002800	3.825300	-11.485000	22.325325	0.000924	20.798141
205.041105	-3.016300	3.824400	-11.534000	22.322164	0.000923	20.818209
206.041236	-2.998100	3.823900	-11.462000	22.333153	0.000926	20.798394
207.045189	-3.011600	3.821900	-11.509000	22.323215	0.000928	20.806934
208.041594	-3.014200	3.822900	-11.523000	22.320374	0.000926	20.789390
209.042478	-2.972800	3.825300	-11.371000	22.306475	0.000927	20.802026
210.041694	-3.011800	3.822400	-11.511000	22.304477	0.000928	20.803818
211.042243	-3.004500	3.822200	-11.482000	22.336209	0.000927	20.786280
212.045588	-2.985000	3.823400	-11.411000	22.335059	0.000927	20.770430
213.046678	-3.007200	3.822700	-11.495000	22.349399	0.000930	20.778151
214.043967	-3.014500	3.821500	-11.519000	22.366316	0.000930	20.799359
215.043788	-3.003100	3.820600	-11.472000	22.363752	0.000931	20.775928
216.045726	-3.002300	3.822400	-11.475000	22.358371	0.000929	20.783342
217.045557	-3.001800	3.820900	-11.468000	22.376745	0.000930	20.778508
218.048666	-3.009700	3.821100	-11.499000	22.379531	0.000931	20.799790
219.044832	-2.988700	3.821200	-11.419000	22.409337	0.000931	20.784592
220.048686	-2.990800	3.820300	-11.424000	22.417884	0.000931	20.769444
221.044807	-3.010300	3.819400	-11.495000	22.422176	0.000931	20.793182
222.046396	-2.983600	3.820300	-11.397000	22.427304	0.000932	20.771291
223.054531	-3.002600	3.818900	-11.465000	22.423043	0.000932	20.788361
224.048028	-3.000500	3.820200	-11.462000	22.443279	0.000933	20.781125
225.046804	-2.997300	3.820500	-11.449000	22.442904	0.000934	20.812044
226.048032	-3.008500	3.818400	-11.486000	22.430969	0.000937	20.781599
227.046264	-3.016000	3.818900	-11.516000	22.439615	0.000936	20.783619
228.048224	-2.997700	3.819300	-11.448000	22.441816	0.000935	20.789143
229.052457	-2.981800	3.818300	-11.384000	22.466067	0.000937	20.792092
230.052067	-2.996800	3.817900	-11.440000	22.460287	0.000939	20.767337
231.048326	-3.007600	3.817800	-11.481000	22.473464	0.000939	20.761093
232.047614	-3.009900	3.817600	-11.490000	22.468582	0.000939	20.773273
233.049922	-2.998100	3.816200	-11.440000	22.459635	0.000939	20.770004
234.058697	-3.014000	3.816600	-11.503000	22.480898	0.000942	20.781814
235.050147	-3.009000	3.816100	-11.480000	22.483714	0.000938	20.777522
236.049807	-3.008400	3.816900	-11.481000	22.481998	0.000941	20.765372
237.051337	-2.981200	3.817000	-11.377000	22.492955	0.000942	20.758802
238.051322	-2.979200	3.816500	-11.369000	22.521866	0.000942	20.781118
239.052116	-3.041500	3.814900	-11.602000	22.514488	0.000942	20.790324
240.050463	-3.009300	3.814400	-11.478000	22.525476	0.000945	20.765292
241.050986	-3.008400	3.815000	-11.476000	22.535122	0.000943	20.795817
242.051477	-3.005700	3.814600	-11.463000	22.546110	0.000945	20.762250
243.059380	-2.983200	3.815800	-11.382000	22.569929	0.000944	20.784210
244.056982	-3.027700	3.815000	-11.549000	22.562102	0.000945	20.773526
245.053814	-3.022900	3.814000	-11.528000	22.575979	0.000945	20.758026
246.050910	-3.007900	3.814400	-11.472000	22.607470	0.000946	20.770127
247.050628	-3.008000	3.814300	-11.473000	22.600019	0.000946	20.775940
248.053120	-3.014400	3.813800	-11.495000	22.610433	0.000948	20.766931
249.052001	-3.006000	3.813000	-11.461000	22.580732	0.000946	20.761364
250.059826	-3.008300	3.812400	-11.468000	22.589198	0.000948	20.777905
251.054913	-2.996000	3.812600	-11.422000	22.583689	0.000949	20.770965
252.056736	-2.998700	3.812200	-11.430000	22.599534	0.000949	20.771661
253.053738	-2.981400	3.814300	-11.371000	22.601452	0.000950	20.772160
254.054689	-3.000400	3.813000	-11.439000	22.622251	0.000951	20.749369
255.057741	-2.995600	3.813300	-11.421000	22.627330	0.000949	20.763465
256.059240	-3.016900	3.811900	-11.499000	22.634677	0.000953	20.762289
257.056641	-3.003600	3.811600	-11.447000	22.636171	0.000952	20.770424
258.055694	-3.000000	3.811800	-11.435000	22.633256	0.000952	20.769402
259.056180	-2.990800	3.811100	-11.397000	22.610208	0.000952	20.766705
260.055089	-3.001400	3.810000	-11.435000	22.604797	0.000956	20.752751
261.061417	-3.002800	3.810500	-11.441000	22.631007	0.000955	20.772838
262.056866	-2.997100	3.811300	-11.421000	22.626119	0.000955	20.762253
263.055593	-3.005200	3.810700	-11.451000	22.653576	0.000955	20.757985
264.055803	-2.989800	3.812100	-11.397000	22.662250	0.000956	20.770467
265.057384	-2.984500	3.809800	-11.368000	22.653589	0.000955	20.752308
266.060110	-3.015300	3.809700	-11.486000	22.668786	0.000956	20.756625
267.057539	-2.992700	3.809600	-11.400000	22.699230	0.000956	20.766257
268.059866	-3.009400	3.808900	-11.461000	22.714402	0.000957	20.773394
269.059825	-2.979800	3.809800	-11.351000	22.736545	0.000957	20.763332
270.058147	-2.984500	3.809800	-11.369000	22.726974	0.000956	20.767495
271.059240	-2.986600	3.808500	-11.373000	22.711531	0.000957	20.765777
272.060750	-3.003400	3.808000	-11.436000	22.716259	0.000958	20.767193
