LabVIEW Measurement	
Writer_Version	2
Reader_Version	2
Separator	Tab
Decimal_Separator	.
Multi_Headings	No
X_Columns	One
Time_Pref	Absolute
Operator	admin
Description	Clolumns are: time, Current, Voltage, Power, Battery Temp, and Chamber Temp
Date	2024/08/16
Time	13:06:06.104549407958984375
***End_of_Header***	
	
Channels	6						
Samples	1	1	1	1	1	1	
Date	2024/09/07	2024/09/07	2024/09/07	2024/09/07	2024/09/07	2024/09/07	
Time	17:44:19.4633512496948242188	17:44:19.4696278572082519531	17:44:19.4766302108764648438	17:44:19.4441714286804199219	17:44:19.4441714286804199219	17:44:19.4441714286804199219	
X_Dimension	Time	Time	Time	Time	Time	Time	
X0	0.0000000000000000E+0	0.0000000000000000E+0	0.0000000000000000E+0	0.0000000000000000E+0	0.0000000000000000E+0	0.0000000000000000E+0	
Delta_X	1.000000	1.000000	1.000000	1.000000	1.000000	1.000000	
***End_of_Header***							
X_Value	Untitled	Untitled 1	Untitled 2	Untitled 3	Untitled 4	Untitled 5	Comment
0.000000	3.400000E+38	4.096900	0.177550	20.941592	0.000913	20.746722
0.999537	-3.008300	3.925700	-11.809000	20.921402	0.000911	20.740755
1.998581	-3.013900	3.918500	-11.808000	20.913602	0.000912	20.744334
2.999686	-3.006300	3.912400	-11.761000	20.943088	0.000912	20.745848
3.998875	-2.991000	3.908000	-11.688000	20.930497	0.000909	20.751274
4.998932	-2.999500	3.906200	-11.715000	20.911589	0.000909	20.735208
6.000218	-3.009400	3.902800	-11.745000	20.946507	0.000907	20.753061
6.998601	-2.996400	3.900700	-11.687000	20.934950	0.000905	20.751460
7.998524	-2.996800	3.898700	-11.683000	20.932832	0.000906	20.750290
9.000370	-3.000800	3.895000	-11.687000	20.960902	0.000905	20.737586
10.011166	-2.997100	3.895500	-11.674000	20.951827	0.000906	20.750796
10.999638	-3.005900	3.892200	-11.697000	20.962805	0.000902	20.758930
12.000503	-3.014600	3.890900	-11.729000	20.968002	0.000904	20.736626
12.998715	-3.008700	3.889500	-11.701000	20.960280	0.000901	20.763992
13.999202	-3.009900	3.888000	-11.702000	20.956754	0.000901	20.733437
15.002250	-2.992400	3.887200	-11.631000	20.979405	0.000899	20.718158
16.001793	-3.012900	3.886600	-11.709000	20.974850	0.000901	20.739208
16.997795	-3.011700	3.885100	-11.699000	20.982028	0.000900	20.751603
18.003200	-2.995100	3.885300	-11.636000	20.974443	0.000901	20.757293
18.999227	-3.012500	3.883200	-11.697000	20.983506	0.000900	20.724631
19.999288	-2.975200	3.884700	-11.557000	20.989799	0.000899	20.729977
21.004258	-3.003900	3.881900	-11.659000	20.998961	0.000897	20.732028
22.001881	-2.998900	3.881400	-11.639000	20.986413	0.000899	20.723271
22.999479	-3.009500	3.881500	-11.679000	20.990329	0.000899	20.722920
24.000222	-3.013800	3.879700	-11.692000	21.026660	0.000898	20.735077
25.000650	-3.000000	3.879000	-11.635000	21.022917	0.000897	20.748403
25.999801	-3.004100	3.878800	-11.651000	21.023422	0.000896	20.737054
27.262229	-2.985200	3.878000	-11.576000	21.029216	0.000895	20.729098
28.004231	-3.003700	3.877300	-11.645000	21.027892	0.000895	20.723980
29.020229	-3.001500	3.876600	-11.634000	21.038026	0.000896	20.755929
30.014228	-2.999300	3.875200	-11.622000	21.051423	0.000892	20.749414
31.009232	-2.966100	3.876100	-11.496000	21.071456	0.000894	20.706861
32.010230	-3.009700	3.873700	-11.658000	21.056391	0.000894	20.731623
33.005229	-3.030200	3.872400	-11.733000	21.073464	0.000893	20.741588
34.018921	-2.977400	3.873200	-11.531000	21.065356	0.000894	20.741539
35.003207	-3.015500	3.872700	-11.675000	21.074794	0.000895	20.733435
36.005901	-3.007900	3.870800	-11.642000	21.073895	0.000893	20.713095
37.004363	-2.999600	3.871500	-11.611000	21.084300	0.000893	20.740573
38.005527	-3.003300	3.870200	-11.622000	21.076315	0.000894	20.726895
39.020250	-2.995300	3.871300	-11.595000	21.101322	0.000894	20.717295
40.015707	-3.025000	3.868900	-11.702000	21.105434	0.000893	20.732789
41.012020	-2.990000	3.869300	-11.569000	21.111400	0.000894	20.701770
42.012164	-2.984100	3.869800	-11.546000	21.101779	0.000890	20.725339
43.011782	-2.978200	3.871000	-11.528000	21.090525	0.000890	20.735419
44.012025	-2.999700	3.867600	-11.600000	21.128478	0.000891	20.722648
45.016757	-2.990100	3.868200	-11.565000	21.118794	0.000891	20.726712
46.015015	-3.002200	3.867900	-11.611000	21.134240	0.000888	20.717506
47.014674	-2.998700	3.866500	-11.594000	21.122095	0.000891	20.726694
48.017088	-3.003300	3.866000	-11.610000	21.133169	0.000890	20.713115
49.013418	-2.982600	3.867200	-11.533000	21.161463	0.000888	20.727667
50.014329	-2.997700	3.865500	-11.586000	21.157892	0.000891	20.725518
51.017751	-2.976100	3.868000	-11.510000	21.140908	0.000889	20.729392
52.013862	-3.002800	3.865300	-11.605000	21.175584	0.000889	20.720456
53.014080	-3.010400	3.864700	-11.632000	21.192753	0.000889	20.710603
54.017837	-2.997000	3.865800	-11.585000	21.201506	0.000887	20.708928
55.014399	-3.011600	3.864500	-11.637000	21.202208	0.000887	20.712950
56.014880	-2.996400	3.863900	-11.576000	21.195597	0.000886	20.713448
57.017414	-3.008400	3.863100	-11.621000	21.215905	0.000888	20.724755
58.016014	-2.997500	3.863400	-11.580000	21.229373	0.000887	20.700294
59.014338	-3.014100	3.861900	-11.640000	21.235387	0.000889	20.712476
60.018693	-2.988000	3.863000	-11.542000	21.239955	0.000889	20.717045
61.013841	-3.015300	3.861800	-11.642000	21.248732	0.000890	20.706859
62.015023	-3.008600	3.863100	-11.621000	21.248837	0.000887	20.719767
63.019188	-3.004800	3.862700	-11.606000	21.257190	0.000888	20.715795
64.015141	-2.989800	3.862200	-11.546000	21.284261	0.000887	20.708738
65.015946	-3.018500	3.860100	-11.651000	21.271138	0.000887	20.722637
66.015304	-3.023800	3.860300	-11.672000	21.292399	0.000888	20.710241
67.021332	-3.007000	3.861200	-11.608000	21.298382	0.000889	20.706743
68.018361	-3.004900	3.860600	-11.600000	21.325551	0.000888	20.712588
69.018460	-3.011700	3.859700	-11.623000	21.323532	0.000890	20.710568
70.020776	-2.987700	3.861800	-11.536000	21.298210	0.000886	20.696138
71.020326	-3.005900	3.859900	-11.602000	21.306021	0.000889	20.706799
72.018862	-3.005400	3.858500	-11.595000	21.327952	0.000886	20.714516
73.022662	-3.016300	3.859000	-11.639000	21.320566	0.000888	20.703332
74.020503	-3.010600	3.859600	-11.618000	21.327503	0.000888	20.705531
75.019150	-2.985600	3.859800	-11.523000	21.335289	0.000890	20.682025
76.021204	-2.995600	3.857200	-11.553000	21.338385	0.000887	20.712152
77.018883	-2.981600	3.859300	-11.506000	21.393336	0.000888	20.718292
78.018660	-2.977600	3.859100	-11.490000	21.371535	0.000890	20.715921
79.020674	-3.000900	3.857300	-11.574000	21.364335	0.000888	20.675997
80.021298	-3.003100	3.856900	-11.580000	21.389077	0.000889	20.686528
81.020186	-2.990900	3.857700	-11.536000	21.396544	0.000888	20.698741
82.022269	-2.994900	3.856200	-11.548000	21.390808	0.000888	20.687785
83.021737	-2.988300	3.857700	-11.527000	21.418048	0.000890	20.685168
84.020359	-2.996600	3.856100	-11.554000	21.386802	0.000887	20.683777
85.020527	-3.013500	3.853900	-11.612000	21.400373	0.000889	20.685027
86.020076	-2.994100	3.856800	-11.546000	21.381824	0.000889	20.690176
87.021690	-3.029200	3.853900	-11.672000	21.425848	0.000889	20.683963
88.021407	-3.025700	3.854900	-11.663000	21.417651	0.000888	20.698048
89.021336	-2.996300	3.854400	-11.547000	21.407366	0.000889	20.696766
90.025241	-3.010500	3.853900	-11.602000	21.433395	0.000890	20.687247
91.025115	-2.985000	3.854600	-11.503000	21.448486	0.000889	20.682431
92.024874	-3.008900	3.853900	-11.595000	21.463608	0.000891	20.692347
93.025922	-2.990400	3.854300	-11.524000	21.449040	0.000892	20.697686
94.023005	-2.995200	3.854100	-11.543000	21.464457	0.000889	20.676126
95.023343	-3.017600	3.853500	-11.627000	21.479326	0.000890	20.683418
96.027466	-3.017800	3.852900	-11.626000	21.475862	0.000890	20.681847
97.022420	-3.017500	3.852600	-11.623000	21.496491	0.000891	20.671668
98.025405	-3.007300	3.852700	-11.584000	21.519685	0.000890	20.671643
99.026720	-3.025700	3.850400	-11.649000	21.487624	0.000890	20.674176
100.026967	-2.993900	3.850900	-11.528000	21.510966	0.000890	20.666237
101.025898	-3.006100	3.852500	-11.580000	21.516782	0.000892	20.694819
102.026044	-3.008400	3.850700	-11.584000	21.507958	0.000889	20.703534
103.031118	-2.970500	3.852600	-11.443000	21.547196	0.000890	20.681155
104.026574	-3.004200	3.852400	-11.572000	21.525799	0.000891	20.673968
105.027956	-3.009600	3.851200	-11.590000	21.545301	0.000890	20.676887
106.026615	-3.011800	3.851300	-11.598000	21.576631	0.000891	20.695437
107.025949	-3.007000	3.850000	-11.576000	21.564016	0.000889	20.682813
108.025118	-3.003600	3.849800	-11.562000	21.571204	0.000890	20.675306
109.029389	-3.009700	3.850600	-11.588000	21.575591	0.000890	20.675429
110.028686	-2.995700	3.850600	-11.533000	21.567691	0.000893	20.676532
111.027667	-3.014100	3.848100	-11.597000	21.594127	0.000891	20.682598
112.028573	-2.992500	3.848700	-11.516000	21.592232	0.000892	20.658888
113.027234	-2.990900	3.850500	-11.515000	21.589599	0.000892	20.659573
114.028910	-2.990500	3.850200	-11.512000	21.610398	0.000892	20.683708
115.030062	-3.000400	3.848500	-11.545000	21.612651	0.000893	20.694025
116.027620	-3.001100	3.848800	-11.550000	21.625259	0.000893	20.681984
117.025367	-3.010000	3.848400	-11.583000	21.634717	0.000894	20.664420
118.032827	-3.013400	3.848200	-11.595000	21.609777	0.000895	20.684509
119.035999	-3.021700	3.846800	-11.622000	21.630060	0.000894	20.704808
120.028304	-3.014200	3.846400	-11.592000	21.649240	0.000892	20.676110
121.030834	-3.012700	3.848000	-11.591000	21.634054	0.000894	20.680353
122.031070	-2.994200	3.847000	-11.518000	21.653610	0.000895	20.666257
123.032194	-2.997600	3.847700	-11.532000	21.660839	0.000894	20.662587
124.035659	-2.979900	3.849000	-11.468000	21.647868	0.000896	20.670469
125.031101	-3.031600	3.845900	-11.658000	21.665725	0.000897	20.671270
126.033385	-2.993300	3.846800	-11.513000	21.636626	0.000894	20.691464
127.033600	-3.012100	3.846300	-11.584000	21.627820	0.000896	20.682651
128.032341	-3.007600	3.845900	-11.566000	21.655880	0.000897	20.668530
129.030362	-2.994400	3.846600	-11.517000	21.662864	0.000896	20.678839
130.033605	-2.994300	3.846400	-11.517000	21.689200	0.000896	20.681014
131.042302	-3.011200	3.845500	-11.579000	21.663215	0.000898	20.682036
132.032999	-2.976000	3.845700	-11.443000	21.687502	0.000897	20.672675
133.032313	-3.003400	3.844500	-11.545000	21.691022	0.000897	20.682837
134.035892	-3.002000	3.845100	-11.542000	21.710071	0.000899	20.671080
135.034746	-3.010900	3.845200	-11.577000	21.718975	0.000899	20.689001
136.034334	-2.987400	3.845500	-11.488000	21.738628	0.000900	20.682117
137.033183	-2.998600	3.843200	-11.522000	21.725183	0.000900	20.681463
138.036563	-3.033500	3.842500	-11.655000	21.732763	0.000899	20.675773
139.034673	-2.998700	3.844200	-11.527000	21.756329	0.000898	20.684660
140.033667	-3.014500	3.844300	-11.586000	21.791288	0.000902	20.685510
141.036578	-3.000100	3.845400	-11.535000	21.772910	0.000901	20.682763
142.043539	-2.990700	3.843500	-11.494000	21.808848	0.000900	20.675109
143.036521	-3.005500	3.843300	-11.550000	21.818267	0.000901	20.685011
144.037013	-3.013200	3.842400	-11.577000	21.796857	0.000903	20.674013
145.036523	-2.961600	3.844000	-11.381000	21.814526	0.000899	20.662298
146.034936	-2.998200	3.843700	-11.523000	21.810768	0.000902	20.689360
147.035088	-3.001300	3.842300	-11.531000	21.827840	0.000902	20.679893
148.036726	-2.994700	3.840800	-11.500000	21.834103	0.000902	20.681421
149.045109	-3.000000	3.841600	-11.523000	21.845227	0.000904	20.678804
150.036869	-2.996500	3.840900	-11.508000	21.839118	0.000904	20.690234
151.039009	-2.985100	3.841000	-11.465000	21.858393	0.000903	20.691509
152.038475	-2.993900	3.840000	-11.495000	21.862004	0.000905	20.684217
153.035699	-2.986400	3.842400	-11.474000	21.870008	0.000905	20.700291
154.042255	-3.003900	3.840500	-11.536000	21.865923	0.000905	20.698099
155.037199	-3.003300	3.839600	-11.531000	21.893342	0.000905	20.711794
156.039791	-3.002200	3.839500	-11.526000	21.881752	0.000905	20.702089
157.043512	-3.015700	3.838500	-11.575000	21.925480	0.000905	20.686114
158.040843	-2.987600	3.839700	-11.471000	21.935599	0.000905	20.679647
159.040376	-3.020600	3.838800	-11.594000	21.938024	0.000906	20.689187
160.040884	-3.005500	3.839500	-11.539000	21.950111	0.000907	20.674733
161.040859	-3.006700	3.837000	-11.536000	21.946747	0.000908	20.689858
162.041124	-2.996700	3.839400	-11.505000	21.944385	0.000909	20.695556
163.046686	-3.007800	3.838500	-11.545000	21.965995	0.000911	20.684470
164.045648	-3.004800	3.838100	-11.531000	21.975321	0.000908	20.680055
165.042585	-2.999400	3.837900	-11.510000	21.950101	0.000908	20.678516
166.042749	-2.990300	3.839100	-11.478000	21.970314	0.000911	20.687846
167.046915	-3.006600	3.838300	-11.539000	21.967750	0.000909	20.708039
168.042069	-3.006700	3.836600	-11.535000	21.993678	0.000912	20.704597
169.047561	-3.002200	3.836300	-11.516000	22.002720	0.000909	20.694207
170.054330	-2.994200	3.836800	-11.487000	22.011425	0.000911	20.706241
171.045655	-2.982900	3.838600	-11.448000	21.995763	0.000910	20.681551
172.046600	-2.989400	3.837000	-11.469000	22.019249	0.000914	20.693209
173.048656	-3.023500	3.833400	-11.588000	22.050313	0.000913	20.699651
174.046208	-2.983700	3.836700	-11.446000	22.038170	0.000913	20.685123
175.056566	-2.969600	3.836800	-11.392000	22.029848	0.000911	20.691966
176.052565	-2.991000	3.836400	-11.473000	22.040538	0.000913	20.699349
177.045174	-2.996900	3.835500	-11.494000	22.062473	0.000913	20.705661
178.049355	-3.000300	3.835300	-11.506000	22.075791	0.000915	20.695759
179.051490	-3.002700	3.835200	-11.515000	22.076517	0.000914	20.686528
180.050575	-3.001500	3.834000	-11.507000	22.067813	0.000914	20.707214
181.052414	-2.994200	3.835000	-11.481000	22.091869	0.000917	20.709961
182.051197	-3.003000	3.832800	-11.508000	22.128467	0.000916	20.701081
183.046297	-2.981500	3.835200	-11.434000	22.120335	0.000915	20.697207
184.050226	-3.006600	3.833200	-11.523000	22.111239	0.000916	20.704695
185.050808	-3.003300	3.833100	-11.511000	22.123012	0.000917	20.692774
186.048382	-3.007200	3.833800	-11.528000	22.140837	0.000918	20.706827
187.052721	-3.020100	3.832200	-11.572000	22.141539	0.000917	20.710849
188.049634	-3.003100	3.833100	-11.510000	22.132558	0.000917	20.701857
189.048846	-3.002000	3.832900	-11.505000	22.164671	0.000917	20.698921
190.053866	-3.014100	3.832400	-11.549000	22.175213	0.000917	20.739349
191.050568	-3.006300	3.831800	-11.519000	22.177581	0.000919	20.703785
192.052211	-3.002800	3.830100	-11.501000	22.189813	0.000919	20.701334
193.053259	-3.028100	3.830700	-11.599000	22.203659	0.000920	20.703343
194.053537	-2.997100	3.831000	-11.481000	22.199046	0.000920	20.709156
195.051743	-2.990200	3.831700	-11.455000	22.197029	0.000920	20.713301
196.058534	-3.002800	3.830600	-11.500000	22.211808	0.000919	20.700596
197.054708	-2.991600	3.830800	-11.459000	22.209096	0.000921	20.713529
198.052778	-3.005000	3.830200	-11.508000	22.209668	0.000922	20.710782
199.058224	-2.996000	3.831100	-11.477000	22.207732	0.000923	20.714059
200.063331	-3.015600	3.828900	-11.545000	22.230333	0.000923	20.709662
201.056829	-3.019500	3.829000	-11.561000	22.226447	0.000923	20.701976
202.057909	-2.990600	3.830700	-11.456000	22.224429	0.000923	20.719873
203.060081	-2.993800	3.828400	-11.461000	22.241004	0.000926	20.708966
204.054830	-3.003600	3.829100	-11.500000	22.242253	0.000923	20.719226
205.058529	-2.992000	3.829900	-11.458000	22.244621	0.000926	20.716855
206.061142	-3.000300	3.829100	-11.487000	22.263612	0.000924	20.703153
207.054351	-3.013500	3.828500	-11.536000	22.261041	0.000927	20.721443
208.058038	-3.001700	3.829500	-11.493000	22.286791	0.000927	20.736796
209.060425	-2.992300	3.828200	-11.454000	22.287043	0.000926	20.723297
210.055089	-2.999100	3.827900	-11.480000	22.297314	0.000928	20.717460
211.058806	-3.000700	3.827500	-11.483000	22.304171	0.000927	20.722430
212.062528	-2.997600	3.826600	-11.469000	22.300530	0.000931	20.726371
213.059231	-2.997200	3.827600	-11.471000	22.284609	0.000930	20.699995
214.062079	-3.007600	3.827300	-11.509000	22.314761	0.000932	20.724499
215.065985	-2.983300	3.826700	-11.415000	22.311078	0.000931	20.717965
216.061682	-3.019300	3.825300	-11.548000	22.293010	0.000932	20.721211
217.062868	-3.000100	3.826800	-11.480000	22.284837	0.000930	20.730097
218.064689	-2.994200	3.825600	-11.454000	22.301460	0.000933	20.726827
219.061799	-3.017700	3.825500	-11.543000	22.321552	0.000933	20.736989
220.062498	-3.015600	3.825400	-11.535000	22.323046	0.000934	20.724734
221.065472	-2.967200	3.825100	-11.348000	22.305525	0.000934	20.716673
222.063421	-3.011200	3.825300	-11.515000	22.322499	0.000933	20.749317
223.066155	-3.000000	3.823900	-11.471000	22.299997	0.000936	20.740062
224.066609	-3.001900	3.825800	-11.483000	22.339152	0.000933	20.733750
225.065641	-3.011800	3.825100	-11.520000	22.326122	0.000936	20.727340
226.061988	-3.017400	3.823100	-11.535000	22.341969	0.000937	20.727087
227.064865	-2.986800	3.825400	-11.423000	22.379874	0.000935	20.717628
228.066800	-2.990300	3.824000	-11.433000	22.381042	0.000938	20.728281
229.066287	-2.992800	3.823900	-11.443000	22.392020	0.000938	20.707031
230.068137	-3.009500	3.822200	-11.501000	22.366371	0.000939	20.742040
231.070944	-2.997300	3.823500	-11.460000	22.396005	0.000940	20.728092
232.066054	-3.013800	3.822300	-11.518000	22.375946	0.000938	20.719858
233.070247	-2.998400	3.823500	-11.463000	22.387334	0.000940	20.743118
234.071688	-3.000000	3.821500	-11.463000	22.391522	0.000939	20.713645
235.068146	-2.996400	3.823100	-11.453000	22.383946	0.000943	20.749683
236.067762	-2.994500	3.823000	-11.446000	22.369464	0.000942	20.741344
237.065866	-2.988800	3.822400	-11.423000	22.366574	0.000942	20.744140
238.072598	-2.999400	3.822600	-11.464000	22.373406	0.000942	20.738179
239.069710	-2.993200	3.821700	-11.438000	22.381610	0.000942	20.743076
240.069258	-2.997900	3.821100	-11.454000	22.373087	0.000943	20.727902
241.072682	-3.016300	3.820300	-11.522000	22.383725	0.000944	20.739029
242.070509	-2.997200	3.820700	-11.450000	22.418143	0.000946	20.742201
243.068907	-2.996700	3.820800	-11.448000	22.423246	0.000945	20.740199
244.069833	-2.996600	3.821000	-11.449000	22.435237	0.000944	20.743673
245.072742	-3.021600	3.819500	-11.540000	22.455123	0.000944	20.731344
246.070134	-2.999200	3.820900	-11.458000	22.472322	0.000946	20.749517
247.072516	-3.007500	3.819700	-11.487000	22.468282	0.000947	20.737884
248.072778	-3.015200	3.819400	-11.514000	22.491776	0.000946	20.743395
249.074551	-3.013500	3.818800	-11.506000	22.523276	0.000946	20.741277
250.073162	-3.015800	3.817700	-11.511000	22.522076	0.000948	20.756198
251.074843	-3.025400	3.817700	-11.549000	22.566652	0.000945	20.753901
252.075639	-3.025200	3.817400	-11.548000	22.559404	0.000947	20.745692
253.074710	-2.994800	3.818200	-11.432000	22.561974	0.000949	20.719816
254.075585	-2.979100	3.819000	-11.376000	22.550114	0.000950	20.737336
255.072220	-2.993900	3.817300	-11.428000	22.550889	0.000950	20.732423
256.076834	-2.984900	3.818600	-11.398000	22.552874	0.000948	20.738678
257.075289	-2.977500	3.817800	-11.366000	22.570324	0.000949	20.751414
258.077042	-2.993900	3.818700	-11.432000	22.576251	0.000952	20.730322
259.073059	-2.994400	3.816400	-11.426000	22.561427	0.000952	20.741555
260.078653	-3.016700	3.816700	-11.513000	22.567108	0.000951	20.756728
261.076657	-2.994700	3.816200	-11.427000	22.559485	0.000953	20.735341
262.075412	-2.998800	3.816000	-11.441000	22.584902	0.000951	20.766963
263.075615	-2.999200	3.817000	-11.447000	22.581213	0.000952	20.755682
264.074538	-2.974500	3.816000	-11.349000	22.593097	0.000953	20.726806
265.075220	-3.005000	3.814900	-11.463000	22.595594	0.000955	20.762499
266.077241	-3.002000	3.816200	-11.455000	22.596116	0.000954	20.749746
267.076395	-3.016600	3.814800	-11.505000	22.583040	0.000954	20.750873
268.076586	-2.994200	3.816200	-11.424000	22.617753	0.000955	20.768572
269.079816	-3.001400	3.813700	-11.445000	22.615712	0.000955	20.758941
270.084872	-3.000100	3.813600	-11.440000	22.621245	0.000957	20.776812
271.079666	-2.999200	3.813100	-11.435000	22.642204	0.000956	20.775519
272.083365	-3.001600	3.813800	-11.446000	22.633315	0.000958	20.754287
