LabVIEW Measurement	
Writer_Version	2
Reader_Version	2
Separator	Tab
Decimal_Separator	.
Multi_Headings	No
X_Columns	One
Time_Pref	Absolute
Operator	admin
Description	Clolumns are: time, Current, Voltage, Power, Battery Temp, and Chamber Temp
Date	2024/08/16
Time	13:06:06.104549407958984375
***End_of_Header***	
	
Channels	6						
Samples	1	1	1	1	1	1	
Date	2024/09/11	2024/09/11	2024/09/11	2024/09/11	2024/09/11	2024/09/11	
Time	09:14:27.0222415924072265625	09:14:27.0282449722290039063	09:14:27.0341248512268066406	09:14:27.0043735504150390625	09:14:27.0043735504150390625	09:14:27.0043735504150390625	
X_Dimension	Time	Time	Time	Time	Time	Time	
X0	0.0000000000000000E+0	0.0000000000000000E+0	0.0000000000000000E+0	0.0000000000000000E+0	0.0000000000000000E+0	0.0000000000000000E+0	
Delta_X	1.000000	1.000000	1.000000	1.000000	1.000000	1.000000	
***End_of_Header***							
X_Value	Untitled	Untitled 1	Untitled 2	Untitled 3	Untitled 4	Untitled 5	Comment
0.000000	0.026526	4.095000	0.108530	20.960751	0.000902	20.696655
0.997755	-3.022300	3.917800	-11.840000	20.953018	0.000903	20.736339
1.996651	-3.012200	3.911500	-11.781000	20.941910	0.000902	20.702942
3.002259	-3.001000	3.906300	-11.722000	20.946274	0.000902	20.691659
4.000058	-3.003500	3.902800	-11.721000	20.944124	0.000900	20.680973
5.004830	-2.993400	3.898600	-11.669000	20.952780	0.000900	20.697692
6.003372	-2.975800	3.896900	-11.596000	20.963929	0.000900	20.693195
6.999208	-2.966200	3.895700	-11.554000	20.941124	0.000898	20.685559
8.000114	-3.005600	3.892200	-11.696000	20.961608	0.000897	20.693718
9.002915	-3.021200	3.890000	-11.752000	20.960953	0.000897	20.702073
10.001302	-3.020500	3.888100	-11.742000	20.960430	0.000896	20.705818
10.999890	-3.016200	3.886600	-11.721000	20.961951	0.000896	20.719193
12.005927	-3.018600	3.884400	-11.723000	20.957210	0.000896	20.707338
13.000714	-2.992600	3.883600	-11.621000	20.937756	0.000894	20.714436
14.002747	-3.015600	3.881900	-11.705000	20.964428	0.000893	20.728784
15.003759	-2.978200	3.880100	-11.554000	20.960953	0.000893	20.709660
16.002027	-2.999900	3.880200	-11.639000	20.983211	0.000893	20.720542
17.003750	-3.003500	3.878000	-11.647000	20.999999	0.000892	20.708409
18.002927	-2.992200	3.878600	-11.605000	20.986316	0.000890	20.701835
19.002188	-2.997600	3.876700	-11.620000	20.989013	0.000891	20.707379
20.006505	-2.988600	3.876400	-11.584000	20.991237	0.000890	20.713396
21.002496	-2.996300	3.874800	-11.608000	21.022403	0.000890	20.691935
22.006047	-2.982400	3.874500	-11.554000	21.012790	0.000890	20.705555
23.002419	-2.997700	3.874100	-11.613000	21.006676	0.000891	20.721727
24.005947	-3.006900	3.871500	-11.639000	21.020996	0.000889	20.707599
25.010064	-2.982300	3.871400	-11.545000	21.046571	0.000891	20.700462
26.012031	-2.992000	3.871100	-11.581000	21.042680	0.000888	20.723125
27.008961	-2.992300	3.871000	-11.582000	21.037294	0.000888	20.720582
28.008037	-2.995500	3.868900	-11.589000	21.052700	0.000888	20.711335
29.009070	-3.016400	3.868800	-11.669000	21.021740	0.000886	20.709765
30.007996	-2.983100	3.868400	-11.538000	21.056346	0.000887	20.725413
31.014192	-2.979700	3.868800	-11.527000	21.058364	0.000887	20.722691
32.010627	-2.977200	3.867600	-11.514000	21.077824	0.000888	20.713231
33.014406	-3.021600	3.864700	-11.675000	21.085385	0.000887	20.699455
34.013021	-2.983200	3.867500	-11.535000	21.095266	0.000885	20.697011
35.011271	-2.990200	3.866200	-11.560000	21.082565	0.000886	20.710860
36.015178	-3.000900	3.864900	-11.598000	21.103667	0.000888	20.712528
37.012866	-3.025100	3.862400	-11.683000	21.106879	0.000885	20.720008
38.011750	-3.016100	3.862800	-11.651000	21.115304	0.000887	20.706624
39.011891	-2.998500	3.862200	-11.579000	21.126387	0.000884	20.708701
40.012561	-2.999900	3.864100	-11.591000	21.125913	0.000885	20.721030
41.012633	-2.996800	3.863600	-11.576000	21.124130	0.000884	20.732998
42.014871	-2.992200	3.863100	-11.558000	21.141874	0.000884	20.699536
43.012115	-3.006300	3.861600	-11.607000	21.180464	0.000886	20.712061
44.012823	-2.995600	3.859700	-11.560000	21.172308	0.000884	20.729507
45.015353	-2.986800	3.862100	-11.534000	21.154189	0.000884	20.724185
46.015168	-2.996400	3.860900	-11.567000	21.157351	0.000884	20.723080
47.015871	-3.011000	3.858500	-11.617000	21.209173	0.000882	20.708062
48.013597	-2.976100	3.861000	-11.490000	21.187843	0.000881	20.734142
49.021926	-3.014800	3.860100	-11.636000	21.179425	0.000882	20.726195
50.014533	-3.018600	3.858000	-11.645000	21.196718	0.000883	20.729743
51.014816	-3.017800	3.858200	-11.641000	21.209580	0.000884	20.743085
52.019044	-3.006500	3.857400	-11.595000	21.246281	0.000881	20.714365
53.016628	-2.979200	3.856700	-11.489000	21.243233	0.000882	20.739766
54.015168	-2.985600	3.856800	-11.515000	21.239890	0.000882	20.734051
55.014827	-2.985300	3.858600	-11.518000	21.251486	0.000883	20.686379
56.017847	-3.008800	3.855000	-11.598000	21.245578	0.000881	20.712713
57.017715	-3.001400	3.856700	-11.574000	21.271695	0.000880	20.719401
58.015914	-2.961100	3.857200	-11.420000	21.270249	0.000883	20.731705
59.021752	-3.014900	3.855500	-11.624000	21.279465	0.000882	20.724329
60.017892	-2.994200	3.855200	-11.541000	21.259690	0.000884	20.726358
61.018140	-3.004700	3.855300	-11.583000	21.296552	0.000883	20.715819
62.023297	-2.994300	3.853400	-11.537000	21.304037	0.000882	20.732791
63.023410	-2.994600	3.853400	-11.539000	21.302264	0.000883	20.733388
64.022049	-3.018200	3.852200	-11.626000	21.308621	0.000882	20.735006
65.019443	-3.002300	3.852800	-11.566000	21.321491	0.000882	20.737925
66.019569	-2.983000	3.853900	-11.495000	21.333135	0.000883	20.736772
67.023606	-3.003500	3.852000	-11.569000	21.351389	0.000882	20.734172
68.026666	-3.001300	3.851400	-11.558000	21.348872	0.000883	20.726912
69.022182	-2.997800	3.851700	-11.546000	21.358898	0.000882	20.724140
70.025573	-3.009700	3.851600	-11.591000	21.360663	0.000880	20.744399
71.023544	-2.974300	3.852100	-11.456000	21.387700	0.000886	20.700324
72.022648	-3.005400	3.851300	-11.573000	21.382454	0.000883	20.708826
73.027268	-2.997200	3.851300	-11.541000	21.370083	0.000882	20.735332
74.032908	-3.019300	3.849500	-11.621000	21.385126	0.000883	20.748960
75.026758	-2.980500	3.850900	-11.477000	21.406354	0.000882	20.740801
76.025695	-2.982400	3.850900	-11.483000	21.418871	0.000881	20.722504
77.023953	-2.975000	3.849800	-11.452000	21.419737	0.000882	20.736173
78.025301	-2.997200	3.849000	-11.536000	21.425097	0.000882	20.738691
79.024996	-2.997500	3.850100	-11.539000	21.435743	0.000883	20.742705
80.025731	-2.980400	3.850000	-11.473000	21.427286	0.000882	20.720018
81.025328	-2.990700	3.849100	-11.509000	21.447557	0.000881	20.751207
82.027199	-3.005700	3.848100	-11.565000	21.454518	0.000882	20.738257
83.029199	-2.981200	3.848600	-11.472000	21.477182	0.000885	20.740072
84.027706	-2.981600	3.848900	-11.475000	21.454861	0.000882	20.737177
85.042875	-3.010000	3.846900	-11.578000	21.474486	0.000881	20.737373
86.032649	-2.989100	3.849000	-11.503000	21.497779	0.000883	20.749301
87.031182	-3.017000	3.846500	-11.604000	21.511962	0.000883	20.736939
88.031712	-3.007200	3.847600	-11.569000	21.516079	0.000882	20.748173
89.034406	-3.022700	3.845900	-11.623000	21.520818	0.000885	20.739163
90.029154	-2.997600	3.847500	-11.532000	21.517615	0.000883	20.745915
91.028128	-3.012100	3.845300	-11.580000	21.520965	0.000884	20.739784
92.028757	-3.014800	3.846300	-11.595000	21.537051	0.000885	20.732647
93.031239	-3.015900	3.845500	-11.597000	21.537149	0.000884	20.761670
94.039704	-2.983100	3.845200	-11.469000	21.527639	0.000885	20.747886
95.032085	-2.968600	3.845000	-11.413000	21.556724	0.000883	20.730521
96.036874	-3.001700	3.844600	-11.539000	21.551781	0.000884	20.747861
97.029933	-3.018500	3.844000	-11.602000	21.585873	0.000885	20.741672
98.030966	-2.996400	3.844600	-11.519000	21.577197	0.000886	20.733939
99.029577	-3.016800	3.844400	-11.597000	21.564199	0.000885	20.764081
100.035628	-2.989700	3.844900	-11.494000	21.614932	0.000886	20.741828
101.035573	-3.017000	3.842200	-11.591000	21.603673	0.000885	20.746684
102.031042	-3.015200	3.842000	-11.583000	21.608045	0.000886	20.731143
103.032753	-2.994400	3.843800	-11.510000	21.604597	0.000886	20.749978
104.032261	-2.992800	3.842900	-11.498000	21.610380	0.000887	20.757663
105.033681	-2.984700	3.844200	-11.472000	21.625298	0.000886	20.761211
106.030635	-2.997200	3.841500	-11.512000	21.643016	0.000887	20.752864
107.032004	-2.995200	3.843500	-11.511000	21.643694	0.000887	20.761129
108.044290	-2.984300	3.842800	-11.466000	21.643343	0.000887	20.755562
109.036491	-3.008400	3.842700	-11.559000	21.650997	0.000887	20.766067
110.035879	-2.986100	3.843100	-11.474000	21.677187	0.000889	20.752447
111.037328	-3.023000	3.841400	-11.611000	21.659281	0.000887	20.774357
112.034096	-2.986800	3.841300	-11.473000	21.672400	0.000888	20.761407
113.034115	-3.025700	3.841600	-11.622000	21.677350	0.000890	20.746446
114.032764	-2.976400	3.842100	-11.433000	21.676631	0.000888	20.757581
115.038047	-3.026400	3.840300	-11.620000	21.679376	0.000889	20.746103
116.037944	-3.009400	3.840000	-11.555000	21.720301	0.000889	20.755766
117.035500	-3.003000	3.840100	-11.530000	21.699945	0.000888	20.772852
118.034830	-2.998000	3.841000	-11.515000	21.713504	0.000891	20.758447
119.036994	-3.016000	3.838600	-11.575000	21.756968	0.000891	20.758324
120.048304	-2.996200	3.839500	-11.502000	21.757442	0.000892	20.758799
121.037830	-2.995300	3.840300	-11.501000	21.741579	0.000893	20.759518
122.034274	-3.016100	3.838700	-11.577000	21.757760	0.000890	20.768600
123.043521	-3.010600	3.839600	-11.559000	21.772789	0.000892	20.756141
124.034633	-2.996600	3.838600	-11.501000	21.784951	0.000890	20.763572
125.035717	-2.990000	3.838800	-11.477000	21.787500	0.000892	20.751898
126.036768	-2.985800	3.838500	-11.458000	21.797220	0.000892	20.761152
127.041214	-2.990300	3.837700	-11.475000	21.795667	0.000890	20.776194
128.035200	-3.007500	3.836700	-11.538000	21.812248	0.000893	20.779513
129.034935	-3.007400	3.838000	-11.541000	21.828951	0.000891	20.761617
130.042897	-2.981000	3.838500	-11.442000	21.835568	0.000894	20.763972
131.035845	-3.005100	3.836900	-11.529000	21.827897	0.000892	20.770045
132.037015	-2.992700	3.836800	-11.482000	21.852882	0.000892	20.756172
133.038283	-2.992500	3.837800	-11.484000	21.813236	0.000892	20.764854
134.042201	-2.959800	3.837800	-11.358000	21.841611	0.000895	20.768598
135.036602	-3.011000	3.834000	-11.543000	21.864120	0.000895	20.786862
136.040766	-3.013300	3.835100	-11.555000	21.853747	0.000896	20.778850
137.039393	-3.013900	3.835200	-11.557000	21.842827	0.000896	20.777877
138.038279	-2.986600	3.836400	-11.456000	21.843521	0.000897	20.772882
139.040093	-3.003500	3.835200	-11.518000	21.860428	0.000895	20.761829
140.037863	-3.012300	3.834400	-11.549000	21.896880	0.000898	20.774607
141.037787	-3.005200	3.834600	-11.523000	21.893188	0.000897	20.786559
142.041384	-3.006600	3.834900	-11.529000	21.900064	0.000896	20.798184
143.042749	-3.025400	3.832500	-11.594000	21.893408	0.000897	20.786305
144.042243	-3.014700	3.834200	-11.557000	21.913957	0.000897	20.771786
145.041864	-3.008100	3.833300	-11.530000	21.927988	0.000900	20.757381
146.044941	-3.008000	3.834100	-11.532000	21.944583	0.000898	20.792485
147.043443	-2.997500	3.834100	-11.492000	21.950129	0.000900	20.800407
148.046358	-2.995100	3.833300	-11.480000	21.973583	0.000899	20.785953
149.044925	-2.988700	3.833100	-11.454000	21.964265	0.000901	20.791799
150.042184	-3.013600	3.831700	-11.546000	21.956458	0.000899	20.767388
151.043045	-3.009500	3.831200	-11.530000	21.992399	0.000901	20.762588
152.040523	-3.004000	3.831000	-11.506000	22.011394	0.000900	20.784449
153.039542	-3.013300	3.832500	-11.548000	21.978018	0.000902	20.764788
154.044332	-2.980500	3.831400	-11.419000	21.964199	0.000901	20.788414
155.044423	-2.996500	3.831600	-11.480000	21.983653	0.000905	20.794137
156.045346	-2.993000	3.831000	-11.465000	21.978614	0.000902	20.772497
157.045610	-3.004100	3.831200	-11.509000	21.992415	0.000903	20.768768
158.041803	-3.003000	3.831100	-11.504000	21.981389	0.000904	20.771008
159.043162	-2.994400	3.830900	-11.469000	22.008486	0.000903	20.787701
160.045089	-2.989300	3.830200	-11.448000	22.018057	0.000904	20.780687
161.049374	-3.013900	3.828600	-11.538000	22.018579	0.000904	20.798280
162.043270	-2.976300	3.830600	-11.399000	22.035279	0.000904	20.789393
163.046831	-3.016100	3.828300	-11.545000	22.055466	0.000907	20.798696
164.053579	-3.008700	3.828200	-11.516000	22.030534	0.000905	20.804557
165.045091	-3.014900	3.829600	-11.545000	22.070989	0.000906	20.794796
166.045714	-2.984600	3.830100	-11.431000	22.102680	0.000906	20.817988
167.049150	-2.995400	3.828100	-11.465000	22.088260	0.000905	20.810664
168.047386	-3.011600	3.828000	-11.527000	22.091967	0.000907	20.805840
169.046784	-2.988100	3.828800	-11.439000	22.124099	0.000910	20.792016
170.049121	-2.991600	3.827700	-11.449000	22.125878	0.000909	20.794746
171.046575	-2.989600	3.827600	-11.442000	22.119150	0.000909	20.794173
172.048011	-2.992600	3.826100	-11.448000	22.117582	0.000910	20.794975
173.047397	-2.991600	3.828100	-11.452000	22.128769	0.000909	20.790527
174.048427	-3.008700	3.827000	-11.513000	22.137816	0.000911	20.809068
175.050471	-2.994500	3.826900	-11.459000	22.159021	0.000911	20.780986
176.050224	-3.003900	3.825900	-11.492000	22.167439	0.000908	20.807906
177.048801	-2.985700	3.827200	-11.426000	22.189526	0.000912	20.796829
178.046179	-2.985800	3.825400	-11.420000	22.162981	0.000913	20.804391
179.048226	-2.974600	3.826100	-11.380000	22.197822	0.000912	20.798497
180.049830	-3.002000	3.825400	-11.483000	22.199545	0.000912	20.789791
181.049893	-3.002800	3.825500	-11.486000	22.209057	0.000914	20.795995
182.052987	-3.016800	3.825200	-11.538000	22.237568	0.000915	20.809369
183.048974	-3.012700	3.825000	-11.523000	22.234907	0.000914	20.810498
184.055256	-2.986900	3.825700	-11.425000	22.236148	0.000913	20.799886
185.050823	-3.012300	3.823800	-11.516000	22.247153	0.000915	20.805690
186.053090	-2.980600	3.824000	-11.397000	22.248280	0.000917	20.803025
187.051514	-2.985000	3.824400	-11.414000	22.287413	0.000915	20.812811
188.051745	-2.997300	3.825500	-11.465000	22.287585	0.000915	20.811086
189.049961	-2.999400	3.824400	-11.470000	22.302991	0.000918	20.799011
190.050608	-2.998400	3.824800	-11.467000	22.303187	0.000917	20.798733
191.053753	-3.012800	3.822400	-11.515000	22.308142	0.000919	20.829299
192.050232	-3.009300	3.821900	-11.500000	22.332463	0.000918	20.834212
193.055130	-3.007600	3.823600	-11.499000	22.321972	0.000918	20.814699
194.052320	-3.013500	3.822300	-11.518000	22.338962	0.000918	20.797571
195.051074	-2.996600	3.822300	-11.451000	22.326528	0.000921	20.797923
196.053125	-3.000200	3.822800	-11.468000	22.349975	0.000920	20.801487
197.054910	-3.009200	3.821300	-11.499000	22.368940	0.000919	20.798193
198.049636	-2.974200	3.822900	-11.369000	22.350971	0.000921	20.825244
199.052749	-3.008600	3.821700	-11.495000	22.331581	0.000921	20.813889
200.049943	-2.985200	3.822000	-11.408000	22.338055	0.000922	20.827957
201.053574	-3.003300	3.822300	-11.477000	22.318854	0.000923	20.812998
202.058175	-2.969900	3.821800	-11.349000	22.334773	0.000925	20.833206
203.051354	-2.974300	3.821800	-11.366000	22.355134	0.000923	20.796697
204.053788	-2.980200	3.821800	-11.389000	22.362980	0.000926	20.805501
205.052765	-2.999700	3.819600	-11.457000	22.344888	0.000923	20.819627
206.053579	-3.010600	3.820300	-11.501000	22.386230	0.000925	20.828309
207.056030	-2.994000	3.821100	-11.439000	22.360808	0.000926	20.835094
208.060143	-3.000900	3.819900	-11.461000	22.380613	0.000926	20.826951
209.057255	-3.010900	3.818600	-11.497000	22.385128	0.000926	20.811558
210.057074	-3.013600	3.818500	-11.507000	22.405390	0.000926	20.825684
211.055697	-2.996300	3.819700	-11.444000	22.434444	0.000926	20.832494
212.055986	-3.002600	3.817600	-11.462000	22.418990	0.000927	20.834562
213.061859	-2.991500	3.818000	-11.420000	22.453227	0.000928	20.834709
214.057181	-2.995000	3.819200	-11.437000	22.456239	0.000929	20.840570
215.063570	-2.996100	3.817600	-11.437000	22.471463	0.000931	20.810298
216.061273	-3.008800	3.818400	-11.487000	22.474655	0.000930	20.827719
217.058384	-2.996700	3.816200	-11.435000	22.485267	0.000931	20.853045
218.060266	-2.979100	3.817600	-11.372000	22.478370	0.000933	20.845189
219.057291	-2.989200	3.816900	-11.408000	22.485023	0.000931	20.851377
220.074439	-2.982100	3.818700	-11.386000	22.482451	0.000931	20.828414
221.057793	-3.000500	3.817200	-11.452000	22.474696	0.000936	20.828708
222.056433	-3.012100	3.815900	-11.493000	22.468712	0.000933	20.836940
223.060266	-3.008400	3.814800	-11.475000	22.459716	0.000933	20.843578
224.065946	-3.013900	3.815000	-11.497000	22.491136	0.000935	20.844697
225.061100	-2.988000	3.816100	-11.402000	22.488597	0.000934	20.836940
226.061551	-3.001100	3.815600	-11.450000	22.489969	0.000934	20.869606
227.061734	-3.010900	3.813900	-11.482000	22.520367	0.000935	20.835092
228.058786	-2.986800	3.815700	-11.394000	22.504735	0.000937	20.826075
229.064326	-2.994700	3.814400	-11.422000	22.542439	0.000937	20.863360
230.060009	-2.989000	3.815100	-11.401000	22.533615	0.000936	20.857368
231.059829	-3.004700	3.813900	-11.458000	22.538349	0.000937	20.852627
232.058881	-2.998600	3.814900	-11.437000	22.539876	0.000937	20.829026
233.063294	-3.021000	3.813300	-11.518000	22.559980	0.000940	20.860540
234.059066	-3.012100	3.813800	-11.486000	22.578125	0.000940	20.810437
235.065269	-3.021000	3.813600	-11.520000	22.584271	0.000940	20.860687
236.060636	-3.009900	3.812600	-11.475000	22.581373	0.000940	20.860629
237.063571	-2.999500	3.813500	-11.438000	22.591446	0.000938	20.852700
238.060895	-2.997400	3.811300	-11.423000	22.591723	0.000942	20.843970
239.064423	-2.992300	3.813200	-11.409000	22.584793	0.000941	20.865951
240.069920	-2.984600	3.812800	-11.379000	22.609860	0.000941	20.815668
241.063659	-2.983900	3.811500	-11.373000	22.594866	0.000943	20.834315
242.061675	-2.995700	3.812300	-11.418000	22.627555	0.000942	20.827228
243.067578	-2.997500	3.811100	-11.423000	22.603934	0.000945	20.841975
244.068331	-3.005700	3.811000	-11.454000	22.581128	0.000946	20.819608
245.065623	-2.998300	3.809500	-11.421000	22.587463	0.000945	20.817892
246.063291	-2.995900	3.810900	-11.416000	22.599396	0.000945	20.819412
247.065974	-3.002300	3.809600	-11.436000	22.614145	0.000945	20.818538
248.064208	-3.012000	3.810900	-11.476000	22.596629	0.000945	20.830865
249.064405	-3.032100	3.809200	-11.548000	22.610880	0.000945	20.822854
250.067453	-2.999100	3.810000	-11.425000	22.631889	0.000947	20.804068
251.063785	-3.015000	3.808400	-11.482000	22.637268	0.000948	20.820835
252.061178	-3.001300	3.809700	-11.433000	22.638101	0.000949	20.801281
253.066323	-3.005100	3.807300	-11.441000	22.619083	0.000949	20.827751
254.066774	-3.000000	3.810200	-11.430000	22.642597	0.000951	20.807207
255.067024	-3.011800	3.807800	-11.467000	22.648874	0.000949	20.820606
256.069445	-2.998100	3.809000	-11.419000	22.656179	0.000952	20.810379
257.066046	-2.986500	3.809500	-11.376000	22.654065	0.000951	20.826280
258.071352	-3.014400	3.808200	-11.478000	22.687764	0.000949	20.823050
259.067534	-2.971700	3.809700	-11.321000	22.689984	0.000952	20.806308
260.063220	-2.980300	3.807400	-11.347000	22.709155	0.000953	20.814130
261.068072	-3.021700	3.806300	-11.501000	22.717455	0.000954	20.821022
262.063144	-2.998700	3.807300	-11.416000	22.708037	0.000952	20.827235
263.067365	-2.996000	3.806300	-11.402000	22.706592	0.000954	20.807296
264.066526	-2.985700	3.806500	-11.363000	22.694652	0.000954	20.822837
265.067694	-2.988600	3.807400	-11.378000	22.722996	0.000956	20.810451
266.067098	-2.996000	3.805400	-11.400000	22.708999	0.000956	20.815871
267.070405	-2.998800	3.806000	-11.413000	22.735874	0.000956	20.813868
268.067891	-2.987300	3.806700	-11.371000	22.736763	0.000957	20.806698
269.063479	-2.991900	3.805900	-11.386000	22.763646	0.000958	20.798540
270.064241	-3.012800	3.804200	-11.460000	22.778311	0.000956	20.824609
271.065882	-3.006400	3.805200	-11.439000	22.783435	0.000958	20.801768
272.066692	-2.986500	3.805200	-11.363000	22.763539	0.000957	20.806968
