LabVIEW Measurement	
Writer_Version	2
Reader_Version	2
Separator	Tab
Decimal_Separator	.
Multi_Headings	No
X_Columns	One
Time_Pref	Absolute
Operator	admin
Date	1903/12/31
Time	19:00:00
***End_of_Header***	
	
0.000000	0.029642	3.635600	0.107840	20.286401	20.035469
0.916840	-0.500260	3.616600	-1.809200	20.275769	20.049265
1.902983	-0.502950	3.616400	-1.818800	20.281543	20.058741
2.904397	-0.509310	3.616300	-1.841800	20.265680	20.086551
3.930120	-0.498440	3.616200	-1.802300	20.268320	20.081049
4.904357	-0.501230	3.615100	-1.812000	20.283148	20.110315
5.902878	-0.500300	3.614900	-1.808600	20.275427	20.117027
0.000000	0.000600	3.632100	0.002207	20.295016	20.115522
0.947084	0.001281	3.632100	0.004725	20.293364	20.129785
1.948982	-0.000408	3.632300	-0.001444	20.282065	20.148094
0.000000	1.114000	3.668100	4.086900	20.275331	20.152462
0.900612	0.986350	3.668700	3.622200	20.280759	20.154930
1.897927	1.005800	3.670700	3.692400	20.284411	20.148219
2.926012	1.007400	3.671400	3.700400	20.290801	20.158311
3.900984	0.954020	3.669800	3.503600	20.285127	20.148935
4.893223	0.983810	3.671400	3.613900	20.285350	20.139535
5.907049	0.985640	3.673300	3.621400	20.284808	20.133442
9.961370	0.002194	3.642900	0.007970	20.271091	20.136008
10.950179	0.001318	3.639900	0.004976	20.292876	20.140400
11.957953	-0.001202	3.639900	-0.004278	20.268502	20.111952
0.000000	0.006273	3.638000	0.022828	20.295862	20.118219
0.922431	-0.508070	3.620400	-1.839300	20.278717	20.092928
1.953228	-0.507260	3.620500	-1.836400	20.267195	20.079554
2.920738	-0.483480	3.620200	-1.750100	20.300773	20.086119
3.920371	-0.489410	3.618500	-1.770800	20.291917	20.062084
4.936768	-0.497310	3.616700	-1.798400	20.290758	20.056854
5.924044	-0.509540	3.617300	-1.843100	20.286491	20.052956
19.972671	0.003566	3.633300	0.012996	20.285010	20.038520
20.960197	-0.002023	3.634300	-0.007181	20.276648	20.025344
21.941143	0.002241	3.635100	0.008180	20.290908	20.013327
29.975191	0.033506	3.635200	0.121880	20.280127	20.007725
30.931342	-0.504700	3.616300	-1.825100	20.288392	19.989341
31.901433	-0.491770	3.616200	-1.778200	20.294882	19.987318
32.896465	-0.498030	3.616000	-1.800800	20.291157	19.956200
33.911665	-0.504610	3.616500	-1.824900	20.301297	19.953017
34.901963	-0.501100	3.615300	-1.811500	20.263156	19.936705
35.901673	-0.492520	3.613600	-1.779600	20.288247	19.928488
29.994709	0.010968	3.632100	0.039883	20.296044	19.928513
30.945927	0.004381	3.632200	0.016031	20.291455	19.905413
31.948118	0.003244	3.632100	0.011937	20.293208	19.894580
29.996208	1.157400	3.669400	4.248300	20.288151	19.886560
30.900591	1.011400	3.668100	3.711700	20.286227	19.873529
31.900653	1.026200	3.670300	3.769700	20.272757	19.842284
32.910214	0.979930	3.670000	3.597000	20.285858	19.837250
33.899079	0.972460	3.670100	3.571400	20.287240	19.840854
34.902334	1.006800	3.672600	3.699700	20.272068	19.815680
35.928742	0.983850	3.672000	3.614000	20.277521	19.794109
39.980218	0.004459	3.641400	0.016253	20.295087	19.790949
40.943953	-0.001828	3.639800	-0.006636	20.290425	19.771106
41.972156	-0.001533	3.639400	-0.005541	20.294570	19.769700
30.017153	0.029960	3.640100	0.109080	20.279891	19.757606
30.921277	-0.490400	3.620500	-1.775500	20.285961	19.740353
31.930425	-0.506760	3.619300	-1.834000	20.283470	19.721570
32.920092	-0.504060	3.620100	-1.824700	20.273577	19.703526
33.924751	-0.506830	3.618700	-1.834100	20.293784	19.693012
34.947734	-0.507420	3.617200	-1.835400	20.293735	19.695555
35.919175	-0.508570	3.616700	-1.839300	20.293291	19.691408
49.965612	0.000140	3.634000	0.000650	20.296104	19.664972
50.962648	-0.000178	3.634800	-0.000551	20.303679	19.653297
51.948028	0.005185	3.634600	0.018978	20.304001	19.655470
59.996331	0.030241	3.635700	0.110020	20.288286	19.623083
60.908814	-0.503220	3.618200	-1.820700	20.289347	19.621553
61.904045	-0.499340	3.616700	-1.805900	20.277061	19.617777
62.905030	-0.489520	3.616000	-1.770000	20.314586	19.614593
63.926766	-0.490920	3.616500	-1.775300	20.298280	19.622715
64.901803	-0.507820	3.613400	-1.834900	20.281505	19.616669
65.902528	-0.508630	3.614900	-1.838500	20.299218	19.621803
59.987891	-0.003364	3.631300	-0.012141	20.302919	19.624025
60.945113	0.005934	3.632000	0.021700	20.289623	19.639973
61.944761	0.008751	3.632800	0.031912	20.286786	19.647873
59.971947	1.098700	3.667600	4.030800	20.294484	19.655945
60.896581	1.005100	3.668000	3.688700	20.290735	19.654785
61.907332	0.997100	3.670600	3.661300	20.303441	19.658612
62.926840	0.982210	3.670300	3.607200	20.298655	19.686778
63.899263	1.010500	3.671700	3.711700	20.304404	19.674757
64.900608	0.970750	3.671600	3.566100	20.280105	19.688582
65.927464	1.016100	3.673000	3.733500	20.306009	19.702652
69.982227	-0.001912	3.641600	-0.006807	20.297376	19.698087
70.946169	-0.001355	3.639500	-0.004834	20.270706	19.710280
71.954592	-0.001253	3.640500	-0.004479	20.291554	19.721882
59.999047	0.033944	3.639200	0.123600	20.302237	19.731460
60.931328	-0.508230	3.621200	-1.840400	20.287756	19.737705
61.952795	-0.507110	3.620100	-1.835700	20.303793	19.757823
62.921112	-0.491240	3.619900	-1.778200	20.297182	19.749357
63.925908	-0.488940	3.618600	-1.769200	20.290941	19.750889
64.952193	-0.506360	3.618100	-1.832000	20.295875	19.783223
65.922438	-0.506430	3.616500	-1.831400	20.296073	19.782311
79.961430	0.005797	3.633300	0.021053	20.299849	19.813114
80.952848	-0.001507	3.634200	-0.005448	20.289635	19.810671
81.946078	0.003606	3.634500	0.013139	20.294224	19.826369
