LabVIEW Measurement	
Writer_Version	2
Reader_Version	2
Separator	Tab
Decimal_Separator	.
Multi_Headings	No
X_Columns	One
Time_Pref	Absolute
Operator	admin
Description	Clolumns are: time, Current, Voltage, Power, Battery Temp, and Chamber Temp
Date	2024/08/16
Time	13:07:17.8513970375061035156
***End_of_Header***	
	
Channels	6						
Samples	1	1	1	1	1	1	
Date	2024/08/26	2024/08/26	2024/08/26	2024/08/26	2024/08/26	2024/08/26	
Time	16:19:21.9892377853393554688	16:19:21.9942407608032226563	16:19:22.0004038810729980469	16:19:21.9656543731689453125	16:19:21.9656543731689453125	16:19:21.9656543731689453125	
X_Dimension	Time	Time	Time	Time	Time	Time	
X0	0.0000000000000000E+0	0.0000000000000000E+0	0.0000000000000000E+0	0.0000000000000000E+0	0.0000000000000000E+0	0.0000000000000000E+0	
Delta_X	1.000000	1.000000	1.000000	1.000000	1.000000	1.000000	
***End_of_Header***							
X_Value	Untitled	Untitled 1	Untitled 2	Untitled 3	Untitled 4	Untitled 5	Comment
0.000000	-0.003363	4.064900	-0.013569	20.675367	0.000405	20.662089
1.004100	-2.984100	3.918000	-11.691000	20.695929	0.000406	20.682178
2.001828	-2.998900	3.909600	-11.723000	20.689168	0.000404	20.683952
3.001009	-2.999900	3.905800	-11.716000	20.700794	0.000405	20.654322
4.003018	-3.000200	3.903000	-11.709000	20.702610	0.000405	20.658035
5.005668	-2.994700	3.901100	-11.682000	20.731019	0.000405	20.663684
6.006003	-3.018000	3.896600	-11.759000	20.696821	0.000405	20.666473
7.002823	-2.990400	3.896600	-11.651000	20.719133	0.000405	20.674559
7.999171	-2.987800	3.895400	-11.638000	20.727152	0.000406	20.664084
9.005666	-3.002600	3.892800	-11.687000	20.735550	0.000405	20.695244
10.003868	-2.956000	3.892900	-11.507000	20.733538	0.000406	20.669047
11.001673	-3.008800	3.889100	-11.701000	20.723956	0.000404	20.685546
12.002358	-2.993800	3.888100	-11.639000	20.744535	0.000405	20.676252
13.004302	-2.996200	3.885400	-11.640000	20.750854	0.000404	20.651273
14.003216	-2.984900	3.885600	-11.598000	20.771366	0.000405	20.674158
15.004864	-3.010500	3.884600	-11.694000	20.779975	0.000403	20.660006
16.005540	-2.992500	3.882700	-11.618000	20.772511	0.000404	20.658706
17.006928	-3.013900	3.882100	-11.699000	20.789008	0.000405	20.667144
18.007945	-3.015000	3.880400	-11.698000	20.783294	0.000406	20.677077
19.005327	-2.986600	3.879600	-11.587000	20.803134	0.000405	20.655190
20.008337	-3.002800	3.879100	-11.647000	20.787930	0.000403	20.658004
21.009717	-2.987000	3.879200	-11.586000	20.801810	0.000404	20.655288
22.005044	-3.018600	3.877400	-11.702000	20.813362	0.000407	20.656409
23.010788	-2.997500	3.877600	-11.622000	20.817808	0.000405	20.637619
24.006515	-2.994100	3.876700	-11.606000	20.835155	0.000404	20.663030
25.009956	-2.998300	3.876200	-11.621000	20.834526	0.000408	20.655763
26.010934	-2.997600	3.874500	-11.613000	20.824496	0.000407	20.674657
27.007812	-3.013400	3.873900	-11.672000	20.864944	0.000406	20.665320
28.010378	-3.019200	3.872800	-11.691000	20.854236	0.000409	20.673579
29.008348	-2.998300	3.874000	-11.615000	20.867291	0.000409	20.669090
30.012136	-2.998500	3.871900	-11.609000	20.860203	0.000406	20.667217
31.009391	-3.009000	3.871200	-11.648000	20.899604	0.000408	20.659205
32.015461	-2.976700	3.871900	-11.524000	20.893539	0.000409	20.658829
33.011477	-2.997100	3.870500	-11.600000	20.887499	0.000408	20.677446
34.015427	-2.985700	3.870900	-11.556000	20.904265	0.000409	20.660072
35.018439	-3.048600	3.869100	-11.794000	20.923661	0.000409	20.667618
36.015149	-2.999600	3.868700	-11.603000	20.924479	0.000409	20.668436
37.017869	-2.989800	3.868500	-11.565000	20.914326	0.000411	20.652116
38.012156	-2.991800	3.868400	-11.573000	20.931018	0.000411	20.663596
39.014606	-3.020800	3.866100	-11.678000	20.939552	0.000410	20.659328
40.020683	-3.023900	3.865500	-11.688000	20.926105	0.000412	20.666743
41.014135	-3.010100	3.867500	-11.640000	20.963084	0.000412	20.665320
42.018630	-3.007600	3.867500	-11.631000	20.965047	0.000412	20.667758
43.015624	-3.008800	3.866700	-11.633000	20.958508	0.000412	20.666908
44.018216	-3.000000	3.865700	-11.596000	20.985254	0.000413	20.672321
45.018345	-3.006800	3.865300	-11.621000	20.986897	0.000413	20.658316
46.018259	-2.992500	3.864400	-11.563000	20.986023	0.000413	20.685419
47.019361	-2.991000	3.864600	-11.558000	21.002622	0.000415	20.673571
48.014951	-2.996500	3.865100	-11.580000	20.996575	0.000415	20.654719
49.027230	-3.010400	3.863300	-11.628000	21.008803	0.000415	20.659837
50.016021	-3.016100	3.864500	-11.655000	21.031386	0.000413	20.672943
51.018444	-2.992400	3.862800	-11.558000	21.055351	0.000416	20.661825
52.018590	-2.979200	3.862600	-11.507000	21.048641	0.000417	20.665545
53.017379	-2.980400	3.862700	-11.511000	21.059225	0.000418	20.677080
54.015428	-2.991400	3.863000	-11.555000	21.057795	0.000419	20.659053
55.016699	-2.978100	3.863000	-11.503000	21.082421	0.000418	20.673255
56.016273	-2.986100	3.861400	-11.530000	21.081146	0.000418	20.666764
57.022167	-2.978700	3.861200	-11.500000	21.101333	0.000419	20.659454
58.023417	-3.011700	3.861300	-11.628000	21.114328	0.000421	20.658702
59.025020	-2.996000	3.860900	-11.567000	21.108886	0.000421	20.667484
60.019737	-3.024500	3.859600	-11.672000	21.110013	0.000418	20.669560
61.028468	-3.001800	3.859600	-11.584000	21.143384	0.000422	20.660739
62.021286	-2.993700	3.860600	-11.557000	21.132359	0.000422	20.681007
63.020973	-2.998000	3.858000	-11.565000	21.144757	0.000424	20.661164
64.016545	-3.004500	3.859600	-11.595000	21.127611	0.000422	20.672939
65.026641	-3.014000	3.858400	-11.628000	21.170125	0.000424	20.662359
66.021684	-3.004800	3.858900	-11.595000	21.181255	0.000422	20.664484
67.018611	-2.978200	3.858400	-11.490000	21.178299	0.000426	20.668639
68.017234	-3.016100	3.857700	-11.634000	21.186258	0.000424	20.650047
69.019061	-2.998300	3.859200	-11.570000	21.196654	0.000427	20.665664
70.019112	-3.036200	3.856800	-11.708000	21.220354	0.000425	20.672777
71.021430	-2.996600	3.857600	-11.559000	21.230332	0.000426	20.657627
72.024704	-2.984600	3.858400	-11.515000	21.227358	0.000425	20.677414
73.022696	-3.008300	3.858100	-11.605000	21.231919	0.000426	20.678657
74.028303	-3.001600	3.855800	-11.573000	21.240106	0.000429	20.675468
75.022296	-3.005500	3.855900	-11.588000	21.239853	0.000428	20.699399
76.029778	-3.015800	3.855800	-11.628000	21.245787	0.000429	20.676883
77.032045	-3.017700	3.855700	-11.634000	21.246661	0.000430	20.668748
78.019361	-3.016000	3.854500	-11.624000	21.262646	0.000432	20.669566
79.023130	-3.004800	3.855300	-11.584000	21.269984	0.000430	20.660785
80.029492	-3.004400	3.855800	-11.583000	21.290978	0.000430	20.668987
81.023221	-3.014100	3.854500	-11.617000	21.281246	0.000432	20.664466
82.032671	-2.997100	3.855100	-11.553000	21.336501	0.000433	20.691773
83.035490	-3.000900	3.854300	-11.565000	21.318361	0.000434	20.676468
84.027081	-3.010400	3.853700	-11.600000	21.333871	0.000433	20.671596
85.023563	-3.008300	3.854400	-11.593000	21.327507	0.000434	20.674238
86.023988	-3.017400	3.853500	-11.626000	21.321935	0.000435	20.686683
87.024576	-2.994000	3.853800	-11.537000	21.347626	0.000435	20.671133
88.024346	-3.002100	3.853200	-11.567000	21.367906	0.000434	20.695218
89.034830	-2.990100	3.854600	-11.525000	21.382861	0.000437	20.702121
90.027017	-3.006400	3.852300	-11.580000	21.378645	0.000437	20.676563
91.032983	-2.994300	3.853700	-11.538000	21.382485	0.000437	20.681828
92.029683	-2.994400	3.852300	-11.534000	21.387323	0.000437	20.682401
93.029597	-2.998700	3.851800	-11.550000	21.396573	0.000438	20.685966
94.042065	-2.984200	3.852800	-11.497000	21.381727	0.000438	20.680121
95.030745	-3.006100	3.851100	-11.576000	21.406321	0.000440	20.691453
96.016220	-3.012300	3.850700	-11.598000	21.422353	0.000441	20.687578
97.015996	-3.004500	3.852400	-11.573000	21.435303	0.000439	20.673981
98.045672	-3.023400	3.849700	-11.638000	21.457617	0.000441	20.678765
99.032396	-3.020400	3.849500	-11.625000	21.445630	0.000441	20.671512
100.036371	-3.000300	3.851700	-11.554000	21.427436	0.000441	20.680810
101.034998	-2.976000	3.852300	-11.463000	21.463704	0.000442	20.691969
102.032413	-3.015400	3.850800	-11.611000	21.457642	0.000443	20.699655
103.039922	-3.008600	3.849100	-11.580000	21.459660	0.000444	20.702149
104.033430	-3.012100	3.849400	-11.594000	21.480486	0.000445	20.674146
105.041026	-3.020600	3.849000	-11.625000	21.469310	0.000446	20.700898
106.016533	-3.000400	3.849700	-11.550000	21.499989	0.000444	20.702672
107.020770	-3.004500	3.850000	-11.567000	21.489809	0.000445	20.681105
108.015205	-3.015200	3.848600	-11.603000	21.543355	0.000446	20.704814
109.016811	-3.001800	3.849300	-11.554000	21.513657	0.000447	20.695959
110.036507	-3.011100	3.848000	-11.586000	21.528624	0.000447	20.697659
111.019580	-3.016500	3.848000	-11.607000	21.561165	0.000447	20.714576
112.016152	-3.012900	3.848200	-11.593000	21.566949	0.000450	20.700448
113.015461	-2.979700	3.848000	-11.465000	21.547782	0.000448	20.699286
114.019228	-3.008800	3.847500	-11.575000	21.589300	0.000448	20.689149
115.018662	-3.024500	3.847000	-11.634000	21.580852	0.000451	20.706300
116.021882	-3.020600	3.846000	-11.616000	21.604870	0.000452	20.699040
117.020323	-3.003500	3.847800	-11.555000	21.600100	0.000452	20.692844
118.019342	-3.006700	3.846500	-11.564000	21.607614	0.000452	20.686138
119.021072	-2.988500	3.845300	-11.491000	21.620260	0.000453	20.702588
120.020591	-2.997500	3.845500	-11.526000	21.619835	0.000455	20.689834
121.022540	-2.985700	3.846800	-11.485000	21.631811	0.000452	20.681428
122.025755	-2.994600	3.845500	-11.515000	21.629915	0.000452	20.686644
123.021842	-2.980400	3.846700	-11.464000	21.665746	0.000454	20.685042
124.021134	-2.997900	3.845900	-11.529000	21.634303	0.000455	20.719012
125.023212	-2.998600	3.845600	-11.531000	21.657814	0.000457	20.703659
126.042229	-2.967500	3.845900	-11.411000	21.656677	0.000455	20.710582
127.038438	-3.008300	3.845000	-11.566000	21.675376	0.000457	20.690413
128.023025	-2.965700	3.846200	-11.405000	21.680286	0.000458	20.701018
129.043905	-3.000200	3.843400	-11.530000	21.675130	0.000457	20.708187
130.040598	-2.985700	3.844500	-11.478000	21.696826	0.000458	20.688172
131.038005	-3.011000	3.843700	-11.573000	21.708074	0.000460	20.710336
132.040557	-2.996300	3.844300	-11.518000	21.739442	0.000461	20.703322
133.023627	-2.980900	3.844100	-11.457000	21.711064	0.000459	20.709061
134.022944	-3.010000	3.841600	-11.562000	21.729942	0.000462	20.715626
135.023873	-3.004000	3.842100	-11.540000	21.756350	0.000462	20.714555
136.025003	-2.979500	3.844400	-11.454000	21.755076	0.000463	20.712806
137.024068	-2.983900	3.843000	-11.466000	21.760115	0.000463	20.705995
138.027713	-3.014400	3.841800	-11.579000	21.769892	0.000465	20.701081
139.024977	-2.987100	3.842100	-11.476000	21.765702	0.000463	20.713009
140.026052	-2.987800	3.841100	-11.476000	21.767042	0.000465	20.712929
141.028831	-2.990000	3.842700	-11.489000	21.769239	0.000466	20.709911
142.027246	-3.009800	3.842000	-11.562000	21.794095	0.000466	20.726729
143.028038	-3.019100	3.841800	-11.597000	21.798882	0.000466	20.699750
144.026426	-2.997200	3.841300	-11.511000	21.832998	0.000466	20.712560
145.026296	-3.022000	3.840100	-11.603000	21.822821	0.000468	20.731773
146.026514	-2.993200	3.841100	-11.496000	21.824267	0.000469	20.735591
147.043289	-2.986800	3.840900	-11.471000	21.852119	0.000469	20.709887
148.035482	-2.997400	3.840600	-11.511000	21.856172	0.000469	20.719160
149.028020	-3.008700	3.838400	-11.547000	21.863888	0.000469	20.726409
150.025872	-2.967900	3.841200	-11.399000	21.910483	0.000469	20.711408
151.025401	-2.993700	3.839400	-11.493000	21.899686	0.000472	20.706764
152.042184	-2.995200	3.840500	-11.502000	21.885777	0.000471	20.707066
153.049627	-3.002800	3.838200	-11.525000	21.879520	0.000470	20.729729
154.054301	-2.989100	3.838800	-11.473000	21.895202	0.000472	20.716027
155.028579	-3.008800	3.838200	-11.548000	21.894328	0.000474	20.694762
156.029031	-3.007500	3.837600	-11.540000	21.908890	0.000473	20.727832
157.033344	-2.992200	3.838500	-11.485000	21.915824	0.000472	20.731453
158.040863	-3.002200	3.838300	-11.523000	21.914729	0.000475	20.733203
159.050060	-3.011800	3.836900	-11.555000	21.931104	0.000476	20.716877
160.049486	-3.019100	3.837200	-11.584000	21.952199	0.000477	20.718078
161.048535	-3.011900	3.836700	-11.555000	21.977925	0.000476	20.736244
162.051011	-2.986800	3.837400	-11.461000	21.971711	0.000476	20.727179
163.031066	-2.997700	3.837100	-11.501000	21.968893	0.000475	20.727677
164.049014	-2.997800	3.836700	-11.501000	21.999664	0.000479	20.721021
165.047082	-3.011600	3.836100	-11.551000	21.993801	0.000479	20.739809
166.047315	-3.020700	3.835500	-11.585000	21.984451	0.000478	20.747045
167.052358	-2.981400	3.836500	-11.437000	21.972511	0.000478	20.725134
168.030688	-2.989800	3.835900	-11.467000	22.008379	0.000480	20.725004
169.050353	-2.995300	3.835700	-11.488000	22.031858	0.000479	20.734284
170.034873	-3.009000	3.833600	-11.534000	22.011621	0.000480	20.718292
171.031436	-2.977000	3.836000	-11.419000	22.013190	0.000483	20.723181
172.032659	-3.006000	3.833500	-11.522000	22.036497	0.000481	20.731815
173.031326	-2.988400	3.835400	-11.461000	22.073433	0.000482	20.725169
174.032211	-3.008200	3.832900	-11.528000	22.063992	0.000482	20.727572
175.036125	-3.004400	3.834600	-11.520000	22.088157	0.000484	20.728057
176.051118	-2.988200	3.833100	-11.453000	22.081257	0.000484	20.731105
177.034861	-2.988900	3.832700	-11.455000	22.095041	0.000484	20.720248
178.051932	-2.995000	3.832000	-11.476000	22.109397	0.000485	20.747898
179.039023	-2.987300	3.833700	-11.452000	22.100601	0.000484	20.730558
180.037050	-3.012900	3.831500	-11.543000	22.104752	0.000486	20.729497
181.033029	-3.001300	3.832500	-11.502000	22.127983	0.000487	20.748014
182.037454	-3.009600	3.832400	-11.533000	22.149523	0.000486	20.759148
183.033792	-3.008300	3.831700	-11.525000	22.169389	0.000488	20.750589
184.034903	-3.016800	3.830000	-11.553000	22.177661	0.000487	20.761242
185.035204	-3.023500	3.830800	-11.582000	22.153785	0.000488	20.744923
186.036202	-2.993200	3.830700	-11.465000	22.188473	0.000488	20.747410
187.035016	-2.999600	3.831100	-11.490000	22.189690	0.000491	20.732981
188.035073	-2.998100	3.830900	-11.484000	22.202656	0.000490	20.752127
189.037777	-2.999900	3.829700	-11.488000	22.198394	0.000491	20.757343
190.035350	-2.990400	3.830800	-11.454000	22.216235	0.000491	20.755766
191.052866	-2.986100	3.829600	-11.435000	22.211099	0.000489	20.753943
192.034440	-3.000600	3.830100	-11.491000	22.231708	0.000491	20.751818
193.055160	-2.997400	3.828600	-11.474000	22.224556	0.000491	20.756985
194.052663	-3.006400	3.829300	-11.512000	22.219378	0.000493	20.755120
195.053845	-2.985900	3.829300	-11.432000	22.224728	0.000494	20.781339
196.054020	-2.993000	3.829200	-11.460000	22.227471	0.000494	20.742359
197.055490	-2.996700	3.828500	-11.471000	22.231080	0.000494	20.763518
198.037277	-3.002800	3.827400	-11.491000	22.239882	0.000495	20.750044
199.054063	-3.008300	3.827500	-11.513000	22.244193	0.000497	20.764793
200.054605	-3.001900	3.827200	-11.488000	22.263184	0.000495	20.751565
201.053793	-3.012100	3.826400	-11.525000	22.284143	0.000495	20.754059
202.048882	-2.984800	3.826700	-11.421000	22.282273	0.000494	20.753609
203.053381	-3.007300	3.827800	-11.510000	22.274542	0.000496	20.770051
204.055850	-2.967600	3.827600	-11.358000	22.275938	0.000496	20.759120
205.053571	-3.000100	3.828500	-11.485000	22.302235	0.000499	20.755580
206.064260	-3.003500	3.826200	-11.492000	22.319005	0.000497	20.760518
207.056705	-2.989000	3.825100	-11.432000	22.320647	0.000498	20.780654
208.037410	-3.005800	3.824600	-11.494000	22.337490	0.000499	20.770967
209.054754	-2.981300	3.826900	-11.409000	22.319815	0.000498	20.753269
210.038322	-2.987600	3.825900	-11.430000	22.329661	0.000500	20.744635
211.037645	-2.992300	3.824500	-11.443000	22.315732	0.000498	20.764828
212.056196	-2.993800	3.823600	-11.446000	22.322730	0.000500	20.771361
213.047664	-3.004100	3.824400	-11.488000	22.354799	0.000502	20.779766
214.040008	-3.010100	3.825000	-11.512000	22.345852	0.000500	20.765116
215.038350	-3.008900	3.825200	-11.509000	22.361927	0.000501	20.762246
216.045996	-3.009300	3.823200	-11.505000	22.376174	0.000502	20.774617
217.039685	-3.019500	3.822200	-11.541000	22.396829	0.000503	20.783921
218.044742	-2.999300	3.822800	-11.465000	22.414341	0.000502	20.787233
219.044626	-3.002900	3.822800	-11.478000	22.432210	0.000504	20.790429
220.055130	-3.014700	3.822300	-11.522000	22.431281	0.000504	20.761523
221.039789	-3.001800	3.823200	-11.476000	22.450841	0.000504	20.764515
222.039501	-3.005000	3.822100	-11.485000	22.435714	0.000505	20.764066
223.040268	-3.002700	3.821500	-11.474000	22.430106	0.000504	20.789270
224.040181	-3.014800	3.822000	-11.521000	22.445022	0.000504	20.780500
225.039950	-3.006900	3.819800	-11.485000	22.477095	0.000505	20.780377
226.040686	-2.999500	3.820400	-11.458000	22.482949	0.000506	20.781023
227.055309	-3.011700	3.820800	-11.506000	22.496125	0.000506	20.783787
228.060886	-2.986300	3.821500	-11.410000	22.518222	0.000504	20.778417
229.057475	-2.983400	3.820100	-11.396000	22.494108	0.000506	20.793148
230.046957	-3.026100	3.818300	-11.553000	22.497293	0.000508	20.784483
231.041894	-3.028700	3.818400	-11.564000	22.486747	0.000508	20.791465
232.044410	-3.005500	3.818700	-11.475000	22.502771	0.000509	20.776693
233.045112	-2.994600	3.819000	-11.435000	22.528010	0.000510	20.792013
234.046238	-2.981600	3.820300	-11.389000	22.513604	0.000513	20.793232
235.047769	-2.997700	3.819000	-11.447000	22.503016	0.000510	20.799224
236.041773	-3.026000	3.817800	-11.551000	22.510535	0.000508	20.798219
237.050318	-3.000600	3.818100	-11.456000	22.519008	0.000510	20.782523
238.043630	-3.003100	3.818300	-11.466000	22.544353	0.000510	20.811699
239.043681	-3.003700	3.817900	-11.467000	22.560221	0.000511	20.783022
240.057067	-2.982300	3.818100	-11.385000	22.552026	0.000510	20.796625
241.042289	-3.011000	3.817800	-11.494000	22.568816	0.000511	20.792105
242.042329	-3.018000	3.817300	-11.520000	22.591916	0.000513	20.794377
243.041704	-3.002900	3.816900	-11.460000	22.572898	0.000511	20.799038
244.069871	-3.007900	3.814700	-11.474000	22.586024	0.000515	20.796537
245.060606	-3.008200	3.815200	-11.475000	22.596089	0.000512	20.793815
246.045484	-2.987600	3.815300	-11.398000	22.603916	0.000512	20.810663
247.072099	-3.001600	3.813800	-11.447000	22.615148	0.000513	20.801999
248.067870	-3.013000	3.813600	-11.490000	22.609172	0.000515	20.790324
249.072372	-2.971000	3.816700	-11.338000	22.611865	0.000515	20.792547
250.059679	-2.998400	3.814300	-11.436000	22.610389	0.000515	20.822837
251.065693	-3.012400	3.813800	-11.488000	22.633235	0.000515	20.826279
252.064233	-3.009100	3.813300	-11.474000	22.652521	0.000517	20.792017
253.071043	-3.000800	3.813800	-11.444000	22.654692	0.000515	20.805096
254.061674	-3.012500	3.812900	-11.486000	22.661238	0.000515	20.827301
255.066795	-2.987400	3.813100	-11.390000	22.658521	0.000516	20.829794
256.061657	-3.017800	3.811600	-11.502000	22.673048	0.000516	20.791715
257.064261	-2.989800	3.813200	-11.400000	22.676436	0.000517	20.807910
258.061209	-3.004900	3.812500	-11.455000	22.674160	0.000516	20.824596
259.064193	-3.001700	3.811400	-11.439000	22.682884	0.000517	20.801093
260.072901	-3.007600	3.812200	-11.465000	22.681562	0.000515	20.824424
261.066424	-3.009600	3.811400	-11.470000	22.702317	0.000519	20.831462
262.071687	-3.007800	3.810900	-11.462000	22.699322	0.000518	20.813765
263.078591	-2.990500	3.811300	-11.397000	22.720273	0.000519	20.827638
264.070126	-2.995200	3.811900	-11.416000	22.723506	0.000521	20.808117
265.064543	-2.995200	3.811100	-11.414000	22.726174	0.000521	20.793246
266.067300	-3.022700	3.809500	-11.514000	22.728737	0.000517	20.825211
267.047606	-3.016000	3.809400	-11.488000	22.732580	0.000520	20.822422
268.065733	-3.010900	3.809300	-11.468000	22.765276	0.000519	20.819613
269.066850	-2.996200	3.811000	-11.417000	22.790885	0.000520	20.821558
270.068279	-3.003900	3.810200	-11.445000	22.781173	0.000520	20.838382
271.063674	-3.004700	3.808200	-11.442000	22.808668	0.000522	20.810924
272.065689	-3.000000	3.808200	-11.424000	22.814600	0.000522	20.841521
