LabVIEW Measurement	
Writer_Version	2
Reader_Version	2
Separator	Tab
Decimal_Separator	.
Multi_Headings	No
X_Columns	One
Time_Pref	Absolute
Operator	admin
Description	Clolumns are: time, Current, Voltage, Power, Battery Temp, and Chamber Temp
Date	2024/05/20
Time	16:37:47.9793305397033691407
***End_of_Header***	
	
Channels	6						
Samples	1	1	1	1	1	1	
Date	2024/06/05	2024/06/05	2024/06/05	2024/06/05	2024/06/05	2024/06/05	
Time	08:46:00.9135079383850097656	08:46:00.9195008277893066406	08:46:00.9244999885559082032	08:46:00.89751434326171875	08:46:00.89751434326171875	08:46:00.89751434326171875	
X_Dimension	Time	Time	Time	Time	Time	Time	
X0	0.0000000000000000E+0	0.0000000000000000E+0	0.0000000000000000E+0	0.0000000000000000E+0	0.0000000000000000E+0	0.0000000000000000E+0	
Delta_X	1.000000	1.000000	1.000000	1.000000	1.000000	1.000000	
***End_of_Header***							
X_Value	Untitled	Untitled 1	Untitled 2	Untitled 3	Untitled 4	Untitled 5	Comment
0.000000	0.028273	3.948500	0.111690	20.782751	-8.286681E-5	20.821157
1.004162	-3.001600	3.859600	-11.584000	20.772945	-8.220691E-5	20.811826
2.005730	-3.002100	3.854700	-11.571000	20.783080	-8.105209E-5	20.803469
3.004282	-3.000500	3.848700	-11.548000	20.782327	-8.223991E-5	20.792285
4.005340	-2.968500	3.847500	-11.420000	20.806788	-8.342772E-5	20.788296
5.004260	-2.988000	3.843500	-11.483000	20.787467	-8.481351E-5	20.803588
6.001126	-3.007500	3.840700	-11.549000	20.795256	-8.194295E-5	20.815170
7.005414	-3.008500	3.838200	-11.547000	20.795654	-8.517646E-5	20.792809
8.005911	-2.981300	3.835800	-11.435000	20.793012	-8.428559E-5	20.792538
9.003353	-3.018600	3.833200	-11.569000	20.795875	-8.392265E-5	20.796823
10.005795	-3.017700	3.830200	-11.557000	20.796255	-8.583636E-5	20.813325
11.006590	-2.996100	3.828800	-11.470000	20.801572	-8.699118E-5	20.818167
12.005847	-2.997700	3.827800	-11.474000	20.816441	-8.662824E-5	20.802216
13.007863	-3.001100	3.826600	-11.482000	20.811453	-8.524245E-5	20.808134
14.010460	-3.004000	3.824000	-11.486000	20.809133	-8.672722E-5	20.808185
15.006463	-2.997600	3.821000	-11.453000	20.807305	-8.751910E-5	20.820107
16.009254	-2.993500	3.818900	-11.431000	20.810871	-8.860793E-5	20.821302
17.013799	-2.979800	3.818900	-11.379000	20.808710	-8.666123E-5	20.808236
18.009603	-2.995700	3.817600	-11.436000	20.816068	-8.939981E-5	20.835982
19.009530	-3.009400	3.816500	-11.484000	20.819742	-8.850895E-5	20.840130
20.008779	-3.023600	3.813900	-11.531000	20.819159	-8.949880E-5	20.813944
21.009067	-2.993200	3.813400	-11.414000	20.815619	-9.091758E-5	20.788593
22.010489	-3.016700	3.812200	-11.500000	20.819394	-8.979575E-5	20.816549
23.011196	-2.975300	3.811900	-11.341000	20.838809	-9.048865E-5	20.821740
24.007815	-2.992700	3.809100	-11.398000	20.827929	-9.019169E-5	20.819394
25.012217	-2.983600	3.807900	-11.360000	20.816397	-8.982875E-5	20.804544
26.012035	-2.979900	3.807600	-11.345000	20.831874	-8.930083E-5	20.809589
27.012135	-3.008200	3.805000	-11.446000	20.828454	-8.939981E-5	20.823238
28.011093	-3.010700	3.805300	-11.457000	20.849392	-9.062063E-5	20.830900
29.008633	-3.009800	3.804000	-11.448000	20.838878	-8.959778E-5	20.793360
30.013764	-2.998300	3.803000	-11.401000	20.841009	-9.055464E-5	20.828208
31.012135	-3.009700	3.800700	-11.438000	20.855487	-9.101656E-5	20.820401
32.008945	-2.996900	3.801200	-11.390000	20.863294	-9.352418E-5	20.825363
33.009772	-3.012100	3.798900	-11.442000	20.852110	-9.098357E-5	20.811334
34.009813	-2.992100	3.800400	-11.370000	20.851075	-8.989474E-5	20.837325
35.012877	-3.015400	3.796700	-11.447000	20.857383	-8.913585E-5	20.816133
36.011532	-2.982700	3.797400	-11.325000	20.876203	-9.081860E-5	20.833058
37.014375	-2.995800	3.796500	-11.372000	20.860474	-9.190743E-5	20.817802
38.012094	-3.010500	3.795600	-11.425000	20.858465	-9.167646E-5	20.812948
39.015598	-3.007200	3.794500	-11.410000	20.866323	-9.174245E-5	20.813220
40.013842	-3.006100	3.793900	-11.403000	20.843836	-9.210540E-5	20.831034
41.014970	-3.002300	3.793800	-11.389000	20.875729	-9.187443E-5	20.838747
42.011334	-3.009500	3.793100	-11.414000	20.872910	-9.345819E-5	20.810324
43.022407	-3.012300	3.790400	-11.416000	20.864546	-9.203941E-5	20.819503
44.016483	-2.989600	3.791600	-11.334000	20.873207	-9.124753E-5	20.833380
45.016636	-3.017200	3.790000	-11.435000	20.884738	-9.161047E-5	20.814092
46.017349	-2.997000	3.789900	-11.357000	20.893619	-9.118154E-5	20.812069
47.014479	-3.017900	3.788000	-11.431000	20.884694	-9.210540E-5	20.842497
48.019359	-2.999400	3.788600	-11.362000	20.896818	-9.167646E-5	20.829967
49.017763	-3.005300	3.787400	-11.381000	20.895175	-9.157748E-5	20.837332
50.017058	-3.012400	3.785900	-11.404000	20.902211	-9.151149E-5	20.820661
51.015167	-3.010300	3.786700	-11.398000	20.904361	-9.322723E-5	20.825182
52.019434	-2.999200	3.786300	-11.355000	20.899840	-9.273230E-5	20.814497
53.023623	-2.988000	3.785300	-11.310000	20.888531	-9.233636E-5	20.819308
54.018386	-3.003600	3.784300	-11.365000	20.921107	-9.236936E-5	20.827705
55.020553	-2.973500	3.784200	-11.251000	20.895530	-9.124753E-5	20.835316
56.021628	-2.973000	3.784500	-11.249000	20.914773	-9.408510E-5	20.852190
57.021283	-2.991400	3.782700	-11.315000	20.935406	-9.368916E-5	20.832996
58.021074	-2.972200	3.782400	-11.240000	20.910177	-9.339220E-5	20.839059
59.021315	-2.992300	3.781700	-11.314000	20.923611	-9.326022E-5	20.835425
60.017434	-3.016600	3.781000	-11.405000	20.945199	-9.263332E-5	20.833782
61.022175	-2.991500	3.781900	-11.312000	20.926532	-9.405210E-5	20.819854
62.023191	-2.997300	3.779600	-11.328000	20.924186	-9.362317E-5	20.836948
63.024453	-2.973600	3.781400	-11.242000	20.927607	-9.203941E-5	20.843214
64.023189	-3.024400	3.778300	-11.425000	20.942133	-9.293027E-5	20.838302
65.024679	-2.997700	3.779100	-11.328000	20.925294	-9.332621E-5	20.854651
66.025811	-2.993400	3.778300	-11.309000	20.942260	-9.461302E-5	20.837006
67.021513	-2.989000	3.778000	-11.291000	20.966370	-9.256733E-5	20.850213
68.027262	-2.987500	3.776800	-11.283000	20.946907	-9.250134E-5	20.842602
69.024314	-3.010100	3.777500	-11.370000	20.963873	-9.263332E-5	20.851983
70.024699	-2.986600	3.777200	-11.280000	20.940863	-9.415109E-5	20.851256
71.027658	-2.994600	3.775700	-11.305000	20.962646	-9.243535E-5	20.860713
72.024302	-2.999400	3.775700	-11.324000	20.957786	-9.385413E-5	20.849689
73.027615	-3.005700	3.774300	-11.343000	20.983582	-9.401911E-5	20.855100
74.031109	-3.008900	3.773900	-11.355000	20.960384	-9.293027E-5	20.880735
75.029087	-2.997600	3.775500	-11.317000	20.964322	-9.438205E-5	20.859070
76.025965	-2.994100	3.772900	-11.295000	20.976521	-9.240235E-5	20.867477
77.028906	-2.984300	3.773500	-11.261000	20.963069	-9.276530E-5	20.858766
78.029057	-2.976400	3.774700	-11.233000	20.971730	-9.375515E-5	20.854625
79.029840	-2.984600	3.772700	-11.259000	20.995452	-9.451403E-5	20.854169
80.029197	-2.987800	3.772700	-11.270000	20.986527	-9.411809E-5	20.869899
81.033876	-3.012500	3.772400	-11.363000	20.988297	-9.316124E-5	20.847014
82.030256	-3.004600	3.771300	-11.329000	20.982481	-9.405210E-5	20.872016
83.030341	-2.999800	3.770900	-11.311000	20.993208	-9.368916E-5	20.862830
84.035607	-2.977800	3.771400	-11.229000	20.997974	-9.487697E-5	20.844839
85.026841	-2.987700	3.771300	-11.266000	21.002114	-9.434906E-5	20.860832
86.027755	-2.981800	3.769200	-11.238000	21.014396	-9.497596E-5	20.858893
87.029999	-2.977600	3.770400	-11.225000	20.998625	-9.177545E-5	20.865404
88.030818	-2.958800	3.771000	-11.156000	21.028441	-9.497596E-5	20.857293
89.036500	-3.010200	3.768000	-11.341000	20.996374	-9.438205E-5	20.862678
90.034842	-3.015300	3.768000	-11.360000	21.003348	-9.411809E-5	20.867282
91.033092	-3.014000	3.767700	-11.355000	21.022752	-9.250134E-5	20.872939
92.037376	-3.003600	3.768100	-11.318000	21.013253	-9.210540E-5	20.852059
93.036935	-3.005300	3.767200	-11.321000	21.042044	-9.266631E-5	20.858570
94.032631	-3.002600	3.766300	-11.307000	21.032461	-9.547088E-5	20.880279
95.041779	-3.010500	3.765500	-11.336000	21.030565	-9.484398E-5	20.869374
96.034307	-3.008400	3.765500	-11.327000	21.034763	-9.431606E-5	20.870254
97.037428	-3.036000	3.763300	-11.423000	21.045116	-9.283129E-5	20.874919
98.036720	-3.027500	3.764100	-11.395000	21.040806	-9.329322E-5	20.866815
99.032532	-3.000600	3.765100	-11.297000	21.040155	-9.276530E-5	20.866164
100.040973	-3.016700	3.763800	-11.353000	21.059403	-9.355718E-5	20.876880
101.038062	-3.012900	3.763100	-11.337000	21.048333	-9.151149E-5	20.874817
102.038910	-3.007600	3.762100	-11.315000	21.057619	-9.207240E-5	20.847123
103.036062	-2.993200	3.764100	-11.265000	21.077612	-9.349119E-5	20.870912
104.038169	-2.992000	3.762400	-11.257000	21.062942	-9.276530E-5	20.873308
105.040737	-3.007100	3.762500	-11.314000	21.064585	-9.474500E-5	20.883960
106.037106	-3.005700	3.763600	-11.311000	21.076613	-9.527291E-5	20.871810
107.038017	-3.002100	3.762800	-11.296000	21.085721	-9.345819E-5	20.887557
108.041785	-2.997000	3.761900	-11.273000	21.078010	-9.276530E-5	20.861354
109.039120	-2.999600	3.761000	-11.281000	21.063542	-9.365616E-5	20.874857
110.038305	-2.991700	3.760900	-11.251000	21.069130	-9.207240E-5	20.886609
111.038090	-3.018200	3.760800	-11.350000	21.086000	-9.273230E-5	20.884043
112.039246	-2.993000	3.760600	-11.254000	21.085772	-9.276530E-5	20.880022
113.038251	-2.996900	3.759600	-11.266000	21.075596	-9.279829E-5	20.888335
114.039823	-2.994200	3.759600	-11.255000	21.076848	-9.246834E-5	20.883424
115.038485	-2.984100	3.758600	-11.215000	21.101972	-9.421708E-5	20.877260
116.038606	-2.978400	3.758700	-11.194000	21.098951	-9.388713E-5	20.879454
117.039791	-2.999100	3.758700	-11.271000	21.083857	-9.269931E-5	20.887590
118.038783	-3.006600	3.758700	-11.300000	21.102327	-9.547088E-5	20.907959
119.043900	-2.997600	3.758500	-11.266000	21.110012	-9.411809E-5	20.881984
120.037517	-2.988700	3.758100	-11.231000	21.104552	-9.266631E-5	20.886005
121.039086	-3.012400	3.756900	-11.316000	21.100159	-9.250134E-5	20.869758
122.041455	-2.996800	3.757300	-11.259000	21.106770	-9.372215E-5	20.883482
123.041016	-2.999600	3.757500	-11.270000	21.107472	-9.398611E-5	20.893192
124.042583	-2.992700	3.756300	-11.240000	21.115480	-9.441505E-5	20.895512
125.042624	-3.026300	3.753500	-11.359000	21.140679	-9.260032E-5	20.919294
126.045235	-2.997000	3.755800	-11.255000	21.137632	-9.563586E-5	20.886852
127.040853	-3.014300	3.754700	-11.316000	21.133102	-9.316124E-5	20.915034
128.046123	-2.998500	3.754800	-11.258000	21.135074	-9.299626E-5	20.889034
129.044877	-2.999700	3.754900	-11.263000	21.136261	-9.401911E-5	20.889747
130.043729	-2.975600	3.755100	-11.172000	21.124696	-9.507494E-5	20.881025
131.047454	-2.994400	3.754600	-11.241000	21.130055	-9.454703E-5	20.909142
132.046681	-2.974800	3.754300	-11.167000	21.141330	-9.332621E-5	20.882016
133.050662	-2.974300	3.755300	-11.168000	21.153611	-9.269931E-5	20.879128
134.046513	-3.005400	3.753600	-11.280000	21.141186	-9.322723E-5	20.902733
135.046431	-3.031800	3.750700	-11.370000	21.152215	-9.372215E-5	20.900489
136.049442	-2.983300	3.752700	-11.195000	21.154288	-9.326022E-5	20.908726
137.048366	-2.994100	3.753400	-11.237000	21.160797	-9.128052E-5	20.912392
138.054240	-2.996200	3.751300	-11.239000	21.153069	-9.286428E-5	20.912247
139.048835	-2.987400	3.751900	-11.207000	21.164647	-9.378814E-5	20.911028
140.049739	-3.011600	3.750800	-11.295000	21.175220	-9.339220E-5	20.909750
141.047831	-2.989100	3.750500	-11.210000	21.154118	-9.517393E-5	20.902392
142.049152	-3.013800	3.750300	-11.301000	21.180315	-9.438205E-5	20.921483
143.049274	-3.021800	3.749900	-11.330000	21.181306	-9.431606E-5	20.915838
144.050235	-3.002500	3.750500	-11.260000	21.179765	-9.355718E-5	20.907658
145.050014	-3.016600	3.749500	-11.310000	21.183709	-9.355718E-5	20.909707
146.050298	-3.008100	3.748400	-11.274000	21.187519	-9.547088E-5	20.907354
147.051774	-3.027200	3.748100	-11.344000	21.176617	-9.349119E-5	20.921103
148.047988	-2.991200	3.749000	-11.213000	21.208476	-9.566885E-5	20.917886
149.054083	-3.006300	3.748000	-11.267000	21.176921	-9.464601E-5	20.915718
150.048773	-2.998100	3.747800	-11.235000	21.196228	-9.487697E-5	20.914643
151.054113	-2.991400	3.746900	-11.208000	21.204278	-9.481098E-5	20.938815
152.054126	-2.986500	3.748400	-11.194000	21.211015	-9.431606E-5	20.919004
153.049956	-2.992500	3.748000	-11.215000	21.211565	-9.312824E-5	20.928088
154.054389	-2.994200	3.747400	-11.220000	21.209170	-9.451403E-5	20.927589
155.056424	-2.987000	3.746300	-11.189000	21.220021	-9.494296E-5	20.920427
156.055803	-3.003400	3.744900	-11.246000	21.215958	-9.306225E-5	20.913094
157.056557	-2.992500	3.745300	-11.206000	21.228705	-9.517393E-5	20.908726
158.054184	-2.995500	3.746300	-11.221000	21.240453	-9.649373E-5	20.927589
159.052604	-2.997800	3.746100	-11.229000	21.238980	-9.510794E-5	20.910944
160.052793	-3.016100	3.745100	-11.295000	21.222586	-9.500895E-5	20.911614
161.054512	-3.011700	3.743900	-11.275000	21.230702	-9.527291E-5	20.912620
162.055145	-3.005800	3.744200	-11.253000	21.234588	-9.652672E-5	20.934997
163.057257	-3.027500	3.743300	-11.332000	21.258786	-9.583383E-5	20.902783
164.056436	-3.023500	3.743700	-11.318000	21.235366	-9.448104E-5	20.908751
165.058565	-3.003800	3.743200	-11.242000	21.253225	-9.523992E-5	20.918555
166.056172	-2.993400	3.743000	-11.203000	21.244295	-9.540489E-5	20.909149
167.054294	-2.981400	3.744200	-11.162000	21.261984	-9.547088E-5	20.913094
168.052650	-3.044200	3.741300	-11.388000	21.264252	-9.599880E-5	20.910148
169.056532	-2.981100	3.742900	-11.157000	21.252573	-9.613078E-5	20.917430
170.057698	-3.003900	3.742700	-11.242000	21.261459	-9.580083E-5	20.907354
171.058525	-2.986200	3.741400	-11.172000	21.268341	-9.679068E-5	20.907600
172.060349	-3.015800	3.740400	-11.279000	21.270465	-9.665870E-5	20.911147
173.059288	-3.016100	3.740800	-11.282000	21.275533	-9.725261E-5	20.897727
174.059888	-3.020900	3.741300	-11.301000	21.273359	-0.000100	20.904560
175.059590	-2.990500	3.742500	-11.191000	21.285020	-9.712063E-5	20.916699
176.061385	-3.015300	3.739600	-11.275000	21.309589	-9.679068E-5	20.899555
177.060071	-3.012200	3.741000	-11.267000	21.274137	-9.675769E-5	20.911502
178.061604	-3.016100	3.740000	-11.280000	21.278877	-9.553687E-5	20.902968
179.061752	-3.040700	3.738600	-11.366000	21.291952	-9.877038E-5	20.900402
180.063346	-2.998800	3.739400	-11.213000	21.309969	-9.758256E-5	20.903728
181.057798	-2.996200	3.739400	-11.203000	21.305671	-9.636175E-5	20.904644
182.062433	-3.013200	3.739600	-11.267000	21.277089	-9.566885E-5	20.924885
183.063614	-2.998200	3.738600	-11.208000	21.294506	-9.497596E-5	20.894423
184.064579	-3.006300	3.736900	-11.233000	21.303815	-9.642774E-5	20.920803
185.070930	-2.984200	3.736900	-11.151000	21.288421	-9.873739E-5	20.915360
186.066689	-2.990200	3.737600	-11.175000	21.320023	-9.520692E-5	20.892925
187.066515	-2.986100	3.736600	-11.157000	21.297665	-9.807749E-5	20.895212
188.065493	-2.999300	3.736400	-11.206000	21.313294	-9.619677E-5	20.883349
189.067091	-2.978200	3.736000	-11.126000	21.350601	-9.778053E-5	20.907868
190.068337	-2.987900	3.736300	-11.163000	21.317925	-9.837444E-5	20.905049
191.066314	-3.019400	3.735300	-11.278000	21.342392	-9.738459E-5	20.883062
192.066813	-3.023800	3.734500	-11.291000	21.329241	-9.870439E-5	20.904043
193.067545	-3.005200	3.735700	-11.226000	21.317071	-9.850642E-5	20.908462
194.064394	-3.035000	3.734000	-11.331000	21.321058	-9.787952E-5	20.898701
195.069458	-3.012900	3.734500	-11.251000	21.341242	-9.844043E-5	20.877170
196.066880	-2.982700	3.734900	-11.139000	21.341404	-9.877038E-5	20.899142
197.069085	-2.990600	3.734000	-11.165000	21.330428	-9.847343E-5	20.884369
198.071667	-2.980400	3.734100	-11.129000	21.356867	-9.985921E-5	20.889009
199.067080	-2.993500	3.734000	-11.176000	21.341972	-9.807749E-5	20.885013
200.072255	-3.004700	3.733400	-11.217000	21.364272	-9.933129E-5	20.903529
201.073432	-2.993800	3.732300	-11.173000	21.338029	-9.731860E-5	20.882490
202.070287	-2.986400	3.734000	-11.151000	21.356411	-9.910033E-5	20.891397
203.070967	-2.986900	3.731400	-11.145000	21.345138	-9.847343E-5	20.895292
204.073452	-3.004100	3.732000	-11.210000	21.364323	-9.890236E-5	20.870391
205.069718	-2.996200	3.731800	-11.180000	21.364399	-9.903434E-5	20.897492
206.070922	-2.975600	3.732400	-11.106000	21.377093	-9.659271E-5	20.879374
207.071908	-2.984800	3.731800	-11.138000	21.367597	-9.910033E-5	20.893580
208.070337	-2.994500	3.731200	-11.172000	21.367818	-9.883637E-5	20.873413
209.075180	-2.980900	3.730000	-11.118000	21.383848	-9.811048E-5	20.879020
210.069991	-3.027100	3.729800	-11.289000	21.369308	-9.751657E-5	20.880120
211.073938	-2.995200	3.729000	-11.169000	21.366541	-0.000100	20.874032
212.071095	-2.992000	3.729200	-11.157000	21.383804	-0.000101	20.883717
213.071731	-3.000900	3.728100	-11.187000	21.407778	-9.962825E-5	20.880677
214.073983	-3.013500	3.727600	-11.233000	21.382476	-9.771454E-5	20.882863
215.071555	-3.014400	3.728400	-11.238000	21.368418	-0.000100	20.869747
216.075290	-3.006700	3.728500	-11.209000	21.372633	-0.000102	20.880601
217.071938	-3.009300	3.727500	-11.217000	21.399425	-0.000101	20.886070
218.073044	-3.000300	3.729200	-11.188000	21.395710	-9.929830E-5	20.868129
219.072664	-2.997000	3.727600	-11.171000	21.399975	-0.000101	20.869078
220.071865	-3.006100	3.727200	-11.204000	21.407464	-9.995820E-5	20.849544
221.074848	-3.007600	3.726900	-11.207000	21.440332	-9.976023E-5	20.877214
222.073562	-3.009000	3.727700	-11.216000	21.410079	-0.000101	20.885350
223.073786	-3.025000	3.726200	-11.271000	21.413049	-9.900134E-5	20.875994
224.076012	-2.997900	3.727100	-11.172000	21.422173	-0.000103	20.867105
225.075407	-2.996800	3.726000	-11.165000	21.409005	-0.000100	20.886645
226.075614	-3.014600	3.725400	-11.229000	21.405745	-0.000102	20.864894
227.082165	-2.987200	3.726200	-11.130000	21.440806	-0.000102	20.882429
228.075674	-3.005500	3.724100	-11.192000	21.434172	-0.000103	20.861568
229.077102	-3.014200	3.724200	-11.225000	21.439663	-0.000101	20.874648
230.080745	-2.976200	3.724800	-11.084000	21.443852	-0.000104	20.867460
231.077124	-3.012500	3.724100	-11.218000	21.425743	-0.000103	20.865462
232.083324	-2.956000	3.726100	-11.013000	21.444503	-0.000102	20.857681
233.083477	-2.980700	3.725300	-11.104000	21.464399	-0.000100	20.883750
234.082918	-3.003600	3.723700	-11.182000	21.433647	-0.000102	20.857250
235.083797	-3.006200	3.723000	-11.191000	21.448895	-0.000102	20.857807
236.081913	-3.004600	3.723600	-11.187000	21.446873	-0.000102	20.872853
237.086776	-3.008500	3.723900	-11.202000	21.452426	-0.000101	20.868926
238.086243	-3.018300	3.722300	-11.235000	21.481162	-0.000102	20.864488
239.084083	-3.023100	3.721100	-11.249000	21.464204	-0.000102	20.856530
240.089571	-3.010800	3.722600	-11.207000	21.474655	-0.000102	20.858451
241.086732	-3.016700	3.721200	-11.224000	21.475273	-0.000104	20.858122
242.087481	-2.999200	3.722700	-11.164000	21.478395	-0.000102	20.859823
243.089527	-3.006100	3.722100	-11.188000	21.475045	-0.000105	20.862161
244.085863	-3.003800	3.720900	-11.176000	21.481206	-0.000103	20.848411
245.087018	-2.999300	3.721000	-11.159000	21.506194	-0.000106	20.864405
246.088219	-2.997400	3.721200	-11.152000	21.483966	-0.000104	20.842638
247.088692	-3.016600	3.720300	-11.222000	21.487156	-0.000102	20.865270
248.090952	-3.004800	3.720100	-11.177000	21.504436	-0.000104	20.858853
249.089702	-2.980400	3.719800	-11.085000	21.472907	-0.000105	20.826358
250.086513	-3.026000	3.719800	-11.255000	21.492911	-0.000103	20.856330
251.091682	-3.019000	3.718500	-11.225000	21.503846	-0.000106	20.865849
252.089214	-2.999500	3.719100	-11.155000	21.498514	-0.000106	20.842023
253.089608	-3.013100	3.717700	-11.200000	21.510860	-0.000106	20.848212
254.088633	-3.004600	3.719800	-11.176000	21.520297	-0.000106	20.844853
255.089810	-3.006000	3.719300	-11.179000	21.522301	-0.000106	20.812720
256.090095	-2.990400	3.718800	-11.119000	21.518673	-0.000107	20.857926
257.089980	-3.005700	3.718000	-11.174000	21.531077	-0.000107	20.850898
258.091919	-3.035400	3.717700	-11.284000	21.534513	-0.000107	20.849120
259.090581	-3.003800	3.718200	-11.168000	21.508216	-0.000106	20.846989
