LabVIEW Measurement	
Writer_Version	2
Reader_Version	2
Separator	Tab
Decimal_Separator	.
Multi_Headings	No
X_Columns	One
Time_Pref	Absolute
Operator	admin
Description	Clolumns are: time, Current, Voltage, Power, Battery Temp, and Chamber Temp
Date	2024/08/16
Time	13:59:35.9411449432373046875
***End_of_Header***	
	
Channels	6						
Samples	1	1	1	1	1	1	
Date	2024/09/20	2024/09/20	2024/09/20	2024/09/20	2024/09/20	2024/09/20	
Time	04:18:04.0765671730041503906	04:18:04.0815639495849609375	04:18:04.0875744819641113281	04:18:04.0597782135009765625	04:18:04.0607786178588867188	04:18:04.0607786178588867188	
X_Dimension	Time	Time	Time	Time	Time	Time	
X0	0.0000000000000000E+0	0.0000000000000000E+0	0.0000000000000000E+0	0.0000000000000000E+0	0.0000000000000000E+0	0.0000000000000000E+0	
Delta_X	1.000000	1.000000	1.000000	1.000000	1.000000	1.000000	
***End_of_Header***							
X_Value	Untitled	Untitled 1	Untitled 2	Untitled 3	Untitled 4	Untitled 5	Comment
0.000000	0.074253	4.097000	0.308790	20.922060	0.000396	20.840512
1.003171	-3.014900	3.933000	-11.856000	20.915747	0.000399	20.860750
2.001702	-2.985800	3.927100	-11.724000	20.916172	0.000398	20.853588
3.002766	-2.984900	3.920700	-11.702000	20.921437	0.000394	20.844155
4.001341	-2.998700	3.916700	-11.744000	20.920588	0.000394	20.841410
5.002108	-2.996100	3.913600	-11.725000	20.923658	0.000395	20.836420
6.002050	-2.999100	3.910200	-11.726000	20.926926	0.000391	20.853913
7.002378	-3.019000	3.906700	-11.793000	20.916720	0.000394	20.844654
8.003276	-2.997700	3.905700	-11.707000	20.922759	0.000390	20.857805
9.002824	-2.964200	3.905300	-11.575000	20.915148	0.000390	20.846875
10.002777	-3.023600	3.900600	-11.793000	20.946015	0.000388	20.838391
11.002506	-3.027100	3.900300	-11.805000	20.932840	0.000389	20.847499
12.003188	-3.009300	3.898100	-11.729000	20.946513	0.000388	20.864492
13.004005	-2.981100	3.897700	-11.619000	20.977504	0.000389	20.849969
14.003724	-2.999400	3.895700	-11.684000	20.944618	0.000387	20.858329
15.004527	-2.991700	3.894700	-11.650000	20.964005	0.000386	20.846426
16.008097	-3.000900	3.893000	-11.681000	20.946863	0.000385	20.855360
17.004546	-2.996200	3.892100	-11.660000	20.958541	0.000385	20.858978
18.005653	-3.031400	3.891400	-11.795000	20.963331	0.000383	20.845752
19.004525	-3.011400	3.890200	-11.715000	20.975932	0.000383	20.829906
20.005435	-3.013700	3.889500	-11.721000	20.970293	0.000383	20.851292
21.005927	-3.002500	3.887300	-11.670000	21.007670	0.000383	20.851691
22.006191	-3.015700	3.887100	-11.721000	20.995693	0.000381	20.867686
23.005393	-3.008000	3.886300	-11.688000	21.000509	0.000381	20.871080
24.007036	-2.979300	3.886000	-11.576000	20.994296	0.000384	20.851117
25.007175	-2.992100	3.885400	-11.625000	21.013009	0.000379	20.861298
26.007300	-2.990400	3.885000	-11.617000	21.012161	0.000379	20.859976
27.010895	-3.007000	3.883600	-11.677000	21.020245	0.000378	20.867112
28.008665	-3.016900	3.882700	-11.713000	21.036513	0.000376	20.866314
29.007138	-2.993300	3.884700	-11.627000	21.032695	0.000378	20.884305
30.008657	-2.976200	3.884500	-11.559000	21.049861	0.000379	20.875397
31.008543	-3.004900	3.882300	-11.665000	21.061512	0.000377	20.856232
32.009018	-3.001700	3.882400	-11.653000	21.049362	0.000375	20.872054
33.010102	-3.006400	3.880600	-11.665000	21.041303	0.000375	20.849295
34.009343	-3.000200	3.881000	-11.644000	21.041927	0.000376	20.875522
35.009523	-3.006400	3.879400	-11.662000	21.084042	0.000376	20.873077
36.009986	-3.014800	3.878400	-11.691000	21.094321	0.000376	20.873875
37.010867	-3.005000	3.878800	-11.655000	21.100608	0.000376	20.892965
38.010514	-2.988600	3.878700	-11.591000	21.082096	0.000374	20.883931
39.013272	-2.983500	3.878000	-11.570000	21.101631	0.000372	20.881661
40.010506	-2.996400	3.876600	-11.615000	21.115927	0.000374	20.881262
41.010893	-3.000200	3.877000	-11.631000	21.129973	0.000373	20.871130
42.012090	-3.016900	3.876400	-11.693000	21.121664	0.000373	20.890319
43.012220	-3.007500	3.875500	-11.654000	21.129449	0.000374	20.884356
44.011499	-3.001100	3.876400	-11.632000	21.132467	0.000373	20.875048
45.013240	-3.012000	3.874600	-11.670000	21.146289	0.000370	20.893613
46.015385	-3.010000	3.875200	-11.664000	21.166871	0.000372	20.872952
47.012474	-3.014100	3.874300	-11.676000	21.155145	0.000371	20.890144
48.016173	-2.995500	3.875000	-11.607000	21.174853	0.000371	20.880463
49.014722	-3.002400	3.874900	-11.633000	21.185181	0.000372	20.887948
50.014122	-2.987400	3.875300	-11.576000	21.172833	0.000370	20.868485
51.019532	-2.993900	3.874100	-11.598000	21.209554	0.000372	20.887199
52.016549	-3.017900	3.872600	-11.686000	21.203991	0.000368	20.887798
53.018294	-3.015400	3.872800	-11.677000	21.196881	0.000371	20.890169
54.016732	-3.007100	3.873100	-11.647000	21.231706	0.000370	20.890867
55.017498	-3.006100	3.872000	-11.639000	21.212797	0.000368	20.886650
56.018947	-3.008200	3.872300	-11.647000	21.232879	0.000369	20.870705
57.017999	-2.989600	3.873300	-11.578000	21.237668	0.000370	20.899201
58.017747	-2.987900	3.872800	-11.569000	21.249242	0.000366	20.913150
59.019139	-3.009400	3.871700	-11.650000	21.246549	0.000370	20.898602
60.018035	-2.997500	3.870700	-11.601000	21.267003	0.000367	20.910529
61.020286	-3.007200	3.871900	-11.643000	21.272292	0.000368	20.878364
62.020584	-3.001800	3.871800	-11.621000	21.279426	0.000369	20.904466
63.020368	-2.999800	3.870300	-11.609000	21.288432	0.000368	20.906837
64.021647	-2.992100	3.870000	-11.579000	21.298085	0.000368	20.896107
65.020548	-3.006200	3.869000	-11.630000	21.287957	0.000366	20.894035
66.021233	-3.007400	3.870000	-11.637000	21.294443	0.000368	20.887248
67.022369	-2.974700	3.870100	-11.511000	21.298360	0.000367	20.918665
68.025730	-2.971200	3.870000	-11.498000	21.320859	0.000367	20.895658
69.021073	-3.000700	3.869400	-11.610000	21.319937	0.000364	20.900898
70.022359	-2.996000	3.869200	-11.591000	21.324053	0.000367	20.903593
71.023964	-2.992600	3.869100	-11.578000	21.350268	0.000366	20.897579
72.022535	-2.986300	3.868200	-11.551000	21.329640	0.000367	20.893063
73.022323	-2.979500	3.869200	-11.527000	21.331062	0.000367	20.895434
74.024562	-2.994900	3.868400	-11.585000	21.358774	0.000366	20.908459
75.023508	-3.000200	3.866200	-11.599000	21.373267	0.000368	20.920112
76.022567	-2.971500	3.867900	-11.493000	21.387708	0.000366	20.897105
77.025868	-2.999200	3.866400	-11.596000	21.387060	0.000368	20.926800
78.024737	-2.965700	3.866500	-11.466000	21.386461	0.000369	20.898229
79.025507	-2.996600	3.866700	-11.586000	21.390627	0.000366	20.902870
80.025547	-3.006700	3.865400	-11.620000	21.400579	0.000366	20.909033
81.030647	-3.007000	3.866400	-11.626000	21.405368	0.000366	20.871628
82.025090	-2.982200	3.867600	-11.533000	21.406041	0.000367	20.903119
83.028957	-3.017800	3.866100	-11.666000	21.397112	0.000364	20.879488
84.025895	-3.018400	3.865500	-11.667000	21.433852	0.000367	20.881635
85.026780	-3.007300	3.865700	-11.624000	21.446821	0.000367	20.886076
86.024961	-3.010800	3.865400	-11.637000	21.444127	0.000364	20.903294
87.026676	-3.010200	3.864500	-11.632000	21.431557	0.000365	20.878390
88.028763	-2.998100	3.864200	-11.585000	21.452258	0.000366	20.882507
89.030581	-2.994000	3.863800	-11.567000	21.455700	0.000367	20.875994
90.026868	-3.012200	3.862700	-11.634000	21.458444	0.000366	20.870680
91.030471	-3.043000	3.863200	-11.754000	21.490792	0.000365	20.887399
92.029045	-3.024400	3.863500	-11.684000	21.461910	0.000366	20.869881
93.027869	-2.991100	3.863700	-11.556000	21.488971	0.000367	20.869457
94.027144	-2.993400	3.864500	-11.567000	21.489694	0.000366	20.854060
95.032035	-3.004700	3.863500	-11.608000	21.493336	0.000367	20.872401
96.031185	-2.994200	3.863000	-11.566000	21.514335	0.000367	20.869706
97.031534	-2.995900	3.863000	-11.572000	21.516580	0.000366	20.869582
98.032484	-3.003200	3.862800	-11.599000	21.530970	0.000366	20.862644
99.029868	-2.987000	3.863300	-11.537000	21.532816	0.000366	20.864965
100.032490	-3.018400	3.862300	-11.657000	21.533963	0.000365	20.854260
101.034401	-3.002900	3.861500	-11.595000	21.531968	0.000367	20.867435
102.031121	-3.001900	3.862500	-11.593000	21.548628	0.000365	20.855657
103.033261	-3.004800	3.861600	-11.602000	21.549251	0.000368	20.862445
104.035601	-3.002200	3.860500	-11.589000	21.559177	0.000368	20.859575
105.032640	-3.020600	3.862600	-11.666000	21.549626	0.000365	20.859975
106.033493	-3.005900	3.861900	-11.607000	21.556408	0.000366	20.871503
107.035937	-2.985700	3.861600	-11.529000	21.580375	0.000367	20.867511
108.036069	-3.018000	3.860200	-11.650000	21.572170	0.000367	20.857879
109.033574	-3.012900	3.860000	-11.628000	21.593293	0.000367	20.840136
110.034542	-2.993800	3.861400	-11.560000	21.602371	0.000366	20.844478
111.033184	-2.991700	3.861400	-11.551000	21.586759	0.000366	20.854933
112.035171	-3.017200	3.860100	-11.645000	21.606709	0.000367	20.849768
113.035666	-2.998000	3.859200	-11.569000	21.611248	0.000368	20.846724
114.034649	-2.997800	3.860500	-11.572000	21.612695	0.000368	20.852438
115.033850	-2.994600	3.860400	-11.560000	21.627333	0.000366	20.852388
116.033838	-3.013200	3.859800	-11.629000	21.632145	0.000369	20.849618
117.036680	-3.013900	3.858500	-11.629000	21.666110	0.000370	20.862270
118.037251	-2.990500	3.859100	-11.539000	21.655786	0.000370	20.854309
119.034897	-2.993400	3.858300	-11.548000	21.652545	0.000367	20.842057
120.037247	-2.991900	3.859400	-11.546000	21.674713	0.000370	20.828681
121.036916	-3.002100	3.858400	-11.582000	21.675710	0.000369	20.856705
122.039562	-2.978900	3.860000	-11.497000	21.677180	0.000368	20.857228
123.039982	-2.998200	3.858300	-11.567000	21.688552	0.000369	20.840634
124.036582	-2.992800	3.857100	-11.542000	21.704087	0.000369	20.832947
125.039904	-3.010300	3.857900	-11.612000	21.682392	0.000370	20.829728
126.038380	-3.004500	3.856900	-11.587000	21.704985	0.000369	20.842381
127.038119	-3.006300	3.856300	-11.592000	21.695709	0.000371	20.844477
128.039625	-3.013600	3.855800	-11.618000	21.716580	0.000371	20.868208
129.040027	-2.994000	3.856700	-11.545000	21.724584	0.000370	20.854408
130.038857	-3.003000	3.856900	-11.581000	21.719647	0.000370	20.830028
131.040375	-3.022800	3.856900	-11.658000	21.744880	0.000370	20.822091
132.041493	-3.020000	3.856600	-11.646000	21.734882	0.000370	20.832947
133.040210	-2.989100	3.857200	-11.529000	21.727875	0.000372	20.857228
134.045670	-2.983400	3.856200	-11.504000	21.756900	0.000371	20.833172
135.042467	-3.023600	3.856500	-11.660000	21.755727	0.000371	20.824412
136.041337	-3.005300	3.856900	-11.590000	21.781360	0.000371	20.824937
137.043161	-3.007400	3.855800	-11.594000	21.768569	0.000370	20.853859
138.046084	-3.000300	3.855900	-11.568000	21.767896	0.000373	20.833272
139.043153	-2.998400	3.854900	-11.558000	21.753783	0.000371	20.840958
140.044919	-2.998600	3.855400	-11.560000	21.778991	0.000372	20.850066
141.041698	-3.018500	3.854100	-11.633000	21.784328	0.000371	20.828855
142.044959	-2.978900	3.855600	-11.485000	21.791484	0.000372	20.841232
143.047101	-2.978600	3.854400	-11.480000	21.809635	0.000373	20.845175
144.044446	-2.981700	3.855500	-11.495000	21.820257	0.000372	20.835892
145.045704	-2.984500	3.855300	-11.505000	21.824246	0.000373	20.818074
146.047333	-2.995600	3.854800	-11.547000	21.818661	0.000373	20.838562
147.045529	-2.993800	3.855200	-11.541000	21.822950	0.000373	20.829105
148.046933	-3.000900	3.854000	-11.565000	21.828660	0.000376	20.846199
149.046163	-2.998400	3.853000	-11.552000	21.845540	0.000376	20.839386
150.045335	-2.985500	3.854400	-11.507000	21.852496	0.000375	20.827383
151.047040	-2.987400	3.853900	-11.512000	21.858006	0.000375	20.819148
152.048491	-2.983200	3.852600	-11.493000	21.873339	0.000376	20.836865
153.050281	-2.974000	3.853800	-11.461000	21.858829	0.000375	20.839885
154.048561	-2.996600	3.853700	-11.547000	21.855762	0.000375	20.828282
155.052202	-3.009900	3.852600	-11.595000	21.868852	0.000377	20.829529
156.049505	-3.015400	3.851900	-11.613000	21.871769	0.000376	20.825811
157.050707	-3.007000	3.852200	-11.582000	21.893235	0.000374	20.814107
158.052839	-3.000200	3.852400	-11.558000	21.899892	0.000378	20.811761
159.048258	-2.986300	3.852500	-11.504000	21.910338	0.000375	20.814157
160.048985	-2.988200	3.853000	-11.512000	21.884310	0.000378	20.809441
161.049652	-3.001200	3.851600	-11.559000	21.927565	0.000374	20.821918
162.049556	-3.001600	3.851800	-11.560000	21.934795	0.000377	20.834844
163.050946	-3.002700	3.851800	-11.564000	21.935842	0.000378	20.838263
164.052166	-2.966200	3.852900	-11.427000	21.935070	0.000378	20.824214
165.050120	-3.004600	3.851300	-11.570000	21.934122	0.000376	20.784385
166.054276	-2.985500	3.852000	-11.499000	21.945242	0.000376	20.805947
167.052938	-2.991300	3.851000	-11.519000	21.955413	0.000378	20.819447
168.053648	-2.996800	3.850900	-11.540000	21.947460	0.000379	20.833771
169.051472	-3.004300	3.850400	-11.567000	21.966756	0.000378	20.836966
170.054619	-3.003100	3.851100	-11.565000	21.954615	0.000379	20.817700
171.051893	-3.006300	3.849700	-11.573000	21.986027	0.000379	20.821169
172.052555	-3.004200	3.850500	-11.566000	21.988570	0.000380	20.811861
173.052892	-3.008000	3.849400	-11.579000	21.968253	0.000379	20.814756
174.052556	-2.996600	3.850000	-11.536000	22.012752	0.000379	20.819472
175.052046	-2.989000	3.849100	-11.505000	21.993157	0.000381	20.804599
176.052596	-3.002800	3.848400	-11.555000	22.010084	0.000379	20.821070
177.053300	-3.012800	3.848400	-11.593000	21.994055	0.000381	20.820196
178.053353	-2.995600	3.848900	-11.528000	22.017264	0.000380	20.808817
179.055280	-3.028500	3.847400	-11.651000	22.006196	0.000382	20.811961
180.052700	-2.999600	3.848300	-11.542000	22.016940	0.000381	20.805174
181.054505	-2.996600	3.848900	-11.532000	22.022325	0.000384	20.819573
182.054938	-2.991600	3.848900	-11.512000	22.049148	0.000384	20.799010
183.053631	-3.003500	3.848300	-11.558000	22.043888	0.000382	20.804650
184.054564	-2.995500	3.848900	-11.529000	22.047105	0.000382	20.813085
185.053716	-3.004100	3.847800	-11.558000	22.053711	0.000383	20.805474
186.054729	-3.001400	3.848100	-11.548000	22.061463	0.000384	20.815606
187.056048	-2.998200	3.848500	-11.538000	22.067646	0.000383	20.799984
188.059812	-2.994900	3.847800	-11.523000	22.066125	0.000385	20.814583
189.055695	-3.008400	3.847300	-11.573000	22.062436	0.000385	20.804251
190.064947	-3.020300	3.847300	-11.619000	22.067920	0.000385	20.814957
191.055807	-2.982900	3.848000	-11.477000	22.098955	0.000385	20.817104
192.055898	-3.026000	3.846900	-11.640000	22.074527	0.000385	20.816830
193.054351	-3.008500	3.846100	-11.570000	22.098108	0.000387	20.804402
194.058490	-3.016400	3.845600	-11.599000	22.124256	0.000385	20.806873
195.055963	-3.003100	3.847000	-11.552000	22.115856	0.000386	20.812213
196.054484	-3.017100	3.846000	-11.603000	22.101523	0.000386	20.803079
197.056186	-3.007100	3.846100	-11.565000	22.129292	0.000387	20.814759
198.054311	-3.010400	3.846500	-11.577000	22.124182	0.000388	20.789729
199.055785	-3.031200	3.845000	-11.654000	22.141083	0.000387	20.784364
200.057711	-3.014000	3.844300	-11.586000	22.145345	0.000387	20.806175
201.055161	-3.001400	3.844500	-11.538000	22.157558	0.000388	20.793746
202.053536	-2.990700	3.844100	-11.496000	22.143375	0.000388	20.808944
203.056142	-3.019600	3.843900	-11.606000	22.162743	0.000390	20.823593
204.056988	-3.004700	3.844300	-11.550000	22.159453	0.000388	20.789479
205.056659	-2.999300	3.844200	-11.528000	22.160524	0.000390	20.800035
206.056472	-2.997200	3.843700	-11.519000	22.162344	0.000389	20.808495
207.057259	-3.007000	3.843500	-11.557000	22.176053	0.000392	20.823169
208.057202	-2.998400	3.843700	-11.524000	22.209528	0.000393	20.807846
209.058224	-3.012700	3.842900	-11.576000	22.206836	0.000391	20.799461
210.058484	-2.972500	3.843900	-11.424000	22.185524	0.000391	20.785236
211.058559	-2.998600	3.842400	-11.521000	22.202748	0.000392	20.787308
212.060971	-3.001100	3.843800	-11.534000	22.193451	0.000393	20.803129
213.059238	-2.998400	3.842200	-11.520000	22.217977	0.000393	20.798762
214.059393	-2.994400	3.843500	-11.508000	22.213391	0.000392	20.797489
215.059105	-2.985100	3.841900	-11.467000	22.227124	0.000393	20.797963
216.061080	-3.005800	3.841600	-11.546000	22.224258	0.000394	20.801258
217.059982	-2.985600	3.842800	-11.473000	22.239836	0.000395	20.805950
218.062498	-3.000200	3.841000	-11.523000	22.218225	0.000395	20.799010
219.059107	-2.987800	3.842000	-11.477000	22.249206	0.000393	20.802530
220.059935	-2.996700	3.840400	-11.507000	22.238115	0.000396	20.789054
221.060542	-3.008700	3.841000	-11.555000	22.256334	0.000394	20.795916
222.059699	-3.024900	3.839900	-11.614000	22.278566	0.000395	20.790201
223.060622	-3.023900	3.839900	-11.611000	22.276422	0.000396	20.784736
224.062258	-3.008500	3.841700	-11.557000	22.284547	0.000396	20.773431
225.060103	-2.997400	3.841600	-11.514000	22.295114	0.000397	20.806297
226.060257	-3.041600	3.839700	-11.677000	22.277394	0.000396	20.804675
227.062929	-3.008400	3.839400	-11.550000	22.274279	0.000395	20.794443
228.060959	-3.007200	3.839000	-11.543000	22.279886	0.000398	20.790101
229.060027	-3.025300	3.838400	-11.611000	22.289482	0.000398	20.776950
230.064143	-2.998700	3.838900	-11.510000	22.306803	0.000399	20.790975
231.059720	-3.003600	3.839000	-11.531000	22.321009	0.000397	20.778172
232.063581	-3.010500	3.837700	-11.552000	22.308373	0.000398	20.781167
233.062483	-3.019400	3.837100	-11.585000	22.301046	0.000398	20.786632
234.063537	-2.996200	3.839300	-11.502000	22.328386	0.000399	20.789352
235.059821	-2.989700	3.838300	-11.474000	22.312785	0.000400	20.762825
236.064155	-2.997400	3.838400	-11.504000	22.320860	0.000400	20.785609
237.064970	-3.008500	3.838200	-11.546000	22.334517	0.000401	20.799759
238.063055	-3.035700	3.836200	-11.645000	22.351140	0.000401	20.794593
239.065081	-2.973100	3.838100	-11.410000	22.357544	0.000403	20.791049
240.062609	-3.013000	3.837800	-11.563000	22.354703	0.000402	20.803377
241.064341	-2.992600	3.837500	-11.483000	22.368809	0.000402	20.786682
242.071574	-2.989100	3.838700	-11.473000	22.367886	0.000402	20.801880
243.065575	-3.009300	3.837400	-11.547000	22.370927	0.000401	20.770785
244.067304	-3.001200	3.836800	-11.515000	22.382167	0.000402	20.789153
245.064922	-3.008800	3.836300	-11.542000	22.392808	0.000402	20.770885
246.064986	-3.015300	3.836400	-11.567000	22.390640	0.000401	20.796215
247.066935	-2.989500	3.835900	-11.466000	22.399138	0.000403	20.762999
248.066797	-3.009400	3.836500	-11.545000	22.392783	0.000401	20.776076
249.064703	-2.993800	3.836500	-11.485000	22.411348	0.000404	20.788504
250.071040	-3.004000	3.835700	-11.522000	22.419522	0.000405	20.785309
251.064803	-2.984900	3.836900	-11.452000	22.411946	0.000404	20.780093
252.066222	-2.995800	3.835600	-11.490000	22.391985	0.000404	20.789976
253.070580	-3.012200	3.835100	-11.551000	22.442622	0.000404	20.779519
254.066490	-2.986200	3.836100	-11.455000	22.443495	0.000404	20.767590
255.068109	-2.998000	3.834600	-11.495000	22.398289	0.000403	20.765943
256.071684	-2.994900	3.834000	-11.481000	22.449127	0.000406	20.777023
257.066932	-3.000100	3.833900	-11.502000	22.440828	0.000407	20.789575
258.066612	-2.996800	3.835200	-11.493000	22.478779	0.000406	20.780167
259.071567	-2.994800	3.834600	-11.483000	22.437912	0.000408	20.787130
260.067700	-2.989900	3.833300	-11.459000	22.463455	0.000407	20.777148
261.071150	-3.014800	3.834000	-11.558000	22.461485	0.000408	20.763322
262.071866	-3.015400	3.833400	-11.559000	22.481869	0.000408	20.753863
263.067966	-3.005800	3.832300	-11.519000	22.490092	0.000406	20.767788
264.070511	-3.000200	3.833400	-11.500000	22.474344	0.000408	20.773354
265.074458	-2.985000	3.833600	-11.442000	22.504520	0.000408	20.774177
266.072521	-2.994700	3.833000	-11.478000	22.485432	0.000409	20.758854
267.071425	-2.994500	3.833700	-11.478000	22.497692	0.000408	20.770184
268.072347	-2.992100	3.832500	-11.467000	22.517203	0.000410	20.771232
269.072274	-2.989300	3.833000	-11.457000	22.507883	0.000409	20.778968
270.073225	-3.009600	3.832700	-11.534000	22.509054	0.000411	20.772554
271.074272	-2.997000	3.830600	-11.479000	22.511695	0.000411	20.766190
272.072707	-3.016000	3.831700	-11.556000	22.513838	0.000413	20.767862
