LabVIEW Measurement	
Writer_Version	2
Reader_Version	2
Separator	Tab
Decimal_Separator	.
Multi_Headings	No
X_Columns	One
Time_Pref	Absolute
Operator	admin
Description	Clolumns are: time, Current, Voltage, Power, Battery Temp, and Chamber Temp
Date	2024/05/20
Time	16:31:59.8575258255004882812
***End_of_Header***	
	
Channels	6						
Samples	1	1	1	1	1	1	
Date	2024/06/05	2024/06/05	2024/06/05	2024/06/05	2024/06/05	2024/06/05	
Time	00:06:48.8267416954040527344	00:06:48.8347344398498535156	00:06:48.8405194282531738281	00:06:48.8048982620239257812	00:06:48.8048982620239257812	00:06:48.8048982620239257812	
X_Dimension	Time	Time	Time	Time	Time	Time	
X0	0.0000000000000000E+0	0.0000000000000000E+0	0.0000000000000000E+0	0.0000000000000000E+0	0.0000000000000000E+0	0.0000000000000000E+0	
Delta_X	1.000000	1.000000	1.000000	1.000000	1.000000	1.000000	
***End_of_Header***							
X_Value	Untitled	Untitled 1	Untitled 2	Untitled 3	Untitled 4	Untitled 5	Comment
0.000000	0.032561	4.022600	0.131120	20.883342	9.710962E-5	20.946872
1.005629	-2.998600	3.935400	-11.800000	20.872616	9.631756E-5	20.957480
1.999209	-3.011100	3.927800	-11.826000	20.889388	9.440342E-5	20.957185
3.000731	-2.989300	3.926300	-11.736000	20.885289	9.776967E-5	20.966361
4.006614	-3.029500	3.922400	-11.882000	20.902459	9.664759E-5	20.972152
5.003622	-3.009900	3.919600	-11.797000	20.893196	9.532749E-5	20.977586
5.996818	-3.004700	3.915900	-11.765000	20.898024	9.674659E-5	20.965820
7.004016	-2.997600	3.914400	-11.733000	20.903714	0.000100	20.953494
8.001979	-3.005800	3.912500	-11.759000	20.899640	9.575652E-5	20.964118
9.013307	-2.989300	3.910300	-11.687000	20.895129	9.813270E-5	20.951547
10.006898	-3.017200	3.908900	-11.793000	20.897586	9.780267E-5	20.961589
10.999966	-3.005200	3.905600	-11.736000	20.918319	9.790168E-5	20.962884
12.011993	-3.006300	3.904900	-11.739000	20.915938	9.826471E-5	20.959081
13.008175	-3.009200	3.902800	-11.743000	20.927251	9.664759E-5	20.973238
14.003298	-2.991900	3.901200	-11.671000	20.924136	9.899076E-5	20.972493
15.012874	-2.998100	3.900000	-11.692000	20.920124	9.902376E-5	20.968007
16.007989	-3.008800	3.898100	-11.727000	20.922841	9.849572E-5	20.988739
17.011809	-3.007700	3.896300	-11.717000	20.922597	9.648258E-5	20.988021
18.006587	-2.999500	3.893900	-11.679000	20.950813	9.971681E-5	20.978310
19.010194	-2.990800	3.892600	-11.641000	20.956089	9.965081E-5	20.969364
20.008268	-2.992200	3.891300	-11.642000	20.944354	9.724163E-5	20.976118
21.011516	-3.003300	3.891000	-11.685000	20.946633	0.000100	20.963226
22.011614	-3.008100	3.888500	-11.697000	20.958138	9.875974E-5	20.985161
23.011300	-2.975500	3.888000	-11.566000	20.962303	9.760466E-5	20.989326
24.009910	-2.982400	3.885900	-11.588000	20.964006	9.767066E-5	20.993873
25.009290	-3.010000	3.883500	-11.689000	20.974706	9.687860E-5	20.987032
26.006666	-2.986400	3.883500	-11.597000	20.960519	9.753865E-5	20.982327
27.005288	-3.003000	3.883000	-11.660000	20.979330	9.833071E-5	20.986915
28.008065	-2.990500	3.880400	-11.603000	20.969552	9.846272E-5	20.992782
29.005780	-3.004700	3.879600	-11.656000	20.983683	0.000100	20.978468
30.003677	-3.008600	3.879700	-11.671000	20.992961	0.000101	20.979212
31.005948	-2.990500	3.878300	-11.597000	20.996483	0.000100	20.989372
32.006130	-2.988200	3.877000	-11.585000	20.999674	9.856173E-5	21.006785
33.008505	-3.017300	3.875500	-11.693000	21.003655	9.984882E-5	20.994174
34.004126	-3.002100	3.875200	-11.633000	21.003181	9.809969E-5	21.001285
35.003766	-2.975100	3.875200	-11.529000	21.007346	9.651558E-5	20.993598
36.010114	-2.984600	3.874200	-11.562000	20.998706	0.000101	21.023357
37.007113	-3.004600	3.873600	-11.637000	21.015890	9.839671E-5	20.994557
38.004129	-3.007900	3.871100	-11.643000	21.024744	0.000100	21.004833
39.008121	-2.998100	3.871300	-11.606000	21.023806	0.000101	21.012903
40.004505	-3.018000	3.870600	-11.680000	21.019937	0.000101	20.980589
41.004819	-3.007500	3.869200	-11.636000	21.036361	0.000101	20.996066
42.009268	-3.006700	3.869400	-11.633000	21.054645	0.000101	21.018143
43.011386	-2.995100	3.866800	-11.581000	21.033940	9.998083E-5	20.992222
44.007070	-2.988500	3.866500	-11.554000	21.049568	0.000101	21.008325
45.009315	-2.991600	3.865600	-11.562000	21.047596	0.000103	21.005878
46.013437	-3.011600	3.865200	-11.639000	21.057077	0.000101	20.994027
47.015715	-3.012500	3.865600	-11.645000	21.050771	0.000101	21.024224
48.013378	-3.021100	3.863400	-11.671000	21.069963	0.000102	21.000276
49.013554	-2.989700	3.865200	-11.555000	21.070233	0.000102	21.012398
50.011614	-3.008800	3.863900	-11.625000	21.071344	0.000103	21.024887
51.015399	-3.009900	3.861700	-11.622000	21.077175	0.000103	21.001801
52.016887	-3.004700	3.861900	-11.603000	21.081467	0.000102	21.018892
53.017334	-2.997600	3.860100	-11.570000	21.062169	0.000103	21.007179
54.004483	-2.987200	3.860500	-11.532000	21.091738	9.971681E-5	21.022053
55.015905	-2.998400	3.858900	-11.570000	21.102182	0.000102	21.021594
56.017837	-2.991700	3.859600	-11.546000	21.086498	0.000100	21.025346
57.016637	-3.003300	3.858200	-11.586000	21.118579	0.000104	21.028986
58.021433	-2.985700	3.857800	-11.518000	21.089919	0.000100	21.011700
59.017364	-3.009700	3.857300	-11.608000	21.120037	0.000103	21.008637
60.018425	-3.011800	3.855900	-11.612000	21.133707	0.000105	21.015197
61.017641	-3.003700	3.856500	-11.583000	21.110761	0.000102	21.007893
62.012699	-2.984900	3.855800	-11.509000	21.109543	0.000103	21.028481
63.014949	-3.006700	3.853700	-11.586000	21.115282	0.000103	21.006725
64.017509	-3.004700	3.853900	-11.580000	21.141868	0.000103	21.016247
65.016173	-2.980900	3.853700	-11.487000	21.142647	0.000101	21.008020
66.017928	-2.989400	3.852500	-11.516000	21.158687	0.000102	21.029276
67.010412	-3.006900	3.851700	-11.581000	21.146083	0.000105	21.029470
68.019921	-2.998900	3.850400	-11.546000	21.165644	0.000103	21.028649
69.020184	-2.989000	3.851300	-11.511000	21.162964	0.000106	21.038294
70.018987	-2.993000	3.850900	-11.525000	21.161068	0.000102	21.034976
71.020924	-2.980200	3.850300	-11.473000	21.171740	0.000104	21.041383
72.012954	-3.006600	3.849600	-11.573000	21.160375	0.000104	21.045186
73.026639	-2.995100	3.849500	-11.529000	21.155354	0.000103	21.025469
74.017164	-2.990000	3.849300	-11.509000	21.196194	0.000106	21.068210
75.022665	-3.009500	3.848000	-11.580000	21.183575	0.000105	21.042790
76.023049	-3.026000	3.847600	-11.641000	21.203315	0.000104	21.030770
77.016425	-3.015600	3.845400	-11.595000	21.195104	0.000105	21.046735
78.026539	-3.022700	3.846600	-11.626000	21.190002	0.000104	21.053010
79.020000	-3.001100	3.846300	-11.542000	21.204798	0.000105	21.032254
80.024817	-2.998600	3.845200	-11.528000	21.202224	0.000103	21.042479
81.020238	-3.015100	3.844000	-11.589000	21.203544	0.000105	21.029104
82.018545	-3.017700	3.844200	-11.599000	21.199650	0.000103	21.044171
83.025928	-2.975200	3.844100	-11.436000	21.225613	0.000107	21.054494
84.021453	-2.996800	3.843200	-11.516000	21.222106	0.000106	21.047194
85.022199	-2.978300	3.844200	-11.448000	21.240831	0.000104	21.041745
86.029190	-3.013200	3.842500	-11.578000	21.231443	0.000104	21.052740
87.026598	-3.025900	3.840200	-11.619000	21.235118	0.000105	21.054993
88.021394	-2.990300	3.841500	-11.487000	21.235464	0.000106	21.039696
89.024054	-2.994900	3.840900	-11.502000	21.249566	0.000102	21.060437
90.026490	-3.010900	3.840000	-11.561000	21.239073	0.000104	21.057053
91.027668	-3.008700	3.839700	-11.552000	21.250397	0.000104	21.052736
92.029168	-2.987500	3.840300	-11.472000	21.234756	0.000106	21.036618
93.023516	-3.001200	3.840300	-11.525000	21.255086	0.000103	21.040833
94.031271	-3.005500	3.837500	-11.532000	21.282153	0.000103	21.039462
95.031474	-3.017400	3.839100	-11.583000	21.275736	0.000102	21.052955
96.033311	-3.001700	3.837000	-11.517000	21.289736	0.000105	21.040410
97.027498	-2.984400	3.837200	-11.451000	21.278320	0.000105	21.037051
98.031968	-3.010200	3.836800	-11.549000	21.291387	0.000103	21.046328
99.025693	-3.002200	3.836300	-11.516000	21.284996	0.000105	21.044677
100.031678	-3.006200	3.835600	-11.529000	21.290516	0.000107	21.041190
101.028495	-2.995100	3.835300	-11.486000	21.297380	0.000104	21.028620
102.030346	-2.994400	3.834800	-11.481000	21.275681	0.000105	21.015448
103.032889	-3.009400	3.835100	-11.540000	21.289874	0.000106	21.013527
104.037589	-2.988500	3.834100	-11.457000	21.304836	0.000104	21.039396
105.037352	-2.982000	3.834900	-11.434000	21.290592	0.000104	21.037000
106.032763	-3.000700	3.832900	-11.501000	21.299572	0.000105	21.032234
107.037089	-2.993300	3.833400	-11.474000	21.293064	0.000104	21.036628
108.033568	-2.999400	3.833100	-11.496000	21.337935	0.000106	21.013720
109.035548	-2.971300	3.832300	-11.387000	21.326622	0.000106	21.023263
110.041188	-3.022400	3.830600	-11.577000	21.330811	0.000105	21.015601
111.039062	-2.979300	3.831200	-11.413000	21.323957	0.000104	21.020123
112.031581	-2.997100	3.830800	-11.480000	21.328401	0.000105	21.033101
113.036798	-3.011500	3.829300	-11.531000	21.333232	0.000106	21.022763
114.035389	-3.004300	3.829400	-11.504000	21.345335	0.000105	21.013063
115.030166	-3.000300	3.830000	-11.490000	21.344540	0.000105	21.020327
116.037997	-3.017200	3.827800	-11.548000	21.356745	0.000106	21.027321
117.030476	-3.002600	3.828100	-11.493000	21.369067	0.000106	21.013099
118.041663	-2.984700	3.827200	-11.422000	21.374240	0.000105	21.017799
119.037329	-2.999900	3.826800	-11.479000	21.366183	0.000106	21.004525
120.036833	-3.017700	3.826900	-11.547000	21.363019	0.000105	21.021744
121.045333	-3.013500	3.826900	-11.532000	21.370143	0.000103	21.016545
122.038192	-2.995600	3.825500	-11.459000	21.378093	0.000103	21.003638
123.040369	-2.996100	3.826700	-11.464000	21.390195	0.000106	21.033759
124.043149	-2.980000	3.825100	-11.398000	21.412688	0.000106	21.019757
125.043366	-2.990300	3.824900	-11.437000	21.387815	0.000103	21.006253
126.036600	-2.996300	3.823800	-11.456000	21.392183	0.000108	21.008726
127.043359	-2.977700	3.824900	-11.388000	21.397049	0.000105	21.004587
128.035445	-3.010500	3.823700	-11.511000	21.410048	0.000105	21.010479
129.042042	-2.997300	3.822400	-11.457000	21.403735	0.000105	21.005586
130.042268	-3.009700	3.821900	-11.502000	21.406476	0.000107	20.982254
131.044360	-3.015100	3.821700	-11.522000	21.424637	0.000106	21.004689
132.044679	-3.019900	3.820900	-11.538000	21.441122	0.000106	21.008853
133.035807	-2.977400	3.821500	-11.376000	21.430146	0.000105	21.009725
134.042793	-2.982000	3.821000	-11.394000	21.460103	0.000105	21.008405
135.048369	-3.005300	3.821200	-11.483000	21.455904	0.000106	21.011315
136.043558	-2.991000	3.821000	-11.428000	21.447027	0.000105	20.994376
137.042165	-2.999800	3.820100	-11.460000	21.456597	0.000105	20.994942
138.039693	-3.012700	3.818500	-11.503000	21.457519	0.000105	20.978324
139.039886	-3.005200	3.819200	-11.476000	21.456276	0.000105	20.993198
140.040401	-2.983400	3.818500	-11.391000	21.472133	0.000105	20.979669
141.042578	-2.999600	3.817900	-11.451000	21.448734	0.000107	21.013624
142.042835	-3.013900	3.816200	-11.500000	21.449029	0.000105	20.983579
143.041734	-2.993400	3.816100	-11.422000	21.448418	0.000105	20.983915
144.051453	-3.024300	3.815600	-11.538000	21.462685	0.000105	20.981596
145.042664	-2.984800	3.816400	-11.390000	21.470023	0.000106	20.986092
146.043764	-2.995600	3.815000	-11.428000	21.501094	0.000105	20.998688
147.047005	-2.993500	3.813800	-11.414000	21.483791	0.000104	20.999392
148.049003	-2.985400	3.815100	-11.389000	21.486802	0.000104	20.963056
149.050838	-2.978700	3.815100	-11.363000	21.497191	0.000105	20.997153
150.051739	-3.012800	3.814400	-11.491000	21.481182	0.000106	20.983507
151.044839	-2.999400	3.814300	-11.440000	21.487765	0.000104	20.991990
152.056153	-2.977400	3.812200	-11.349000	21.494322	0.000103	20.982906
153.048496	-2.984500	3.813000	-11.378000	21.513226	0.000105	20.972899
154.050372	-3.002100	3.812900	-11.446000	21.517338	0.000104	20.964212
155.051846	-3.006600	3.812100	-11.460000	21.505491	0.000104	20.977961
156.051357	-2.973900	3.812500	-11.337000	21.531706	0.000106	20.982381
157.055918	-2.986400	3.812200	-11.384000	21.508054	0.000105	20.975310
158.048336	-2.985400	3.810600	-11.375000	21.516008	0.000105	20.979475
159.053125	-3.007200	3.810100	-11.457000	21.540521	0.000106	20.968917
160.052571	-2.980300	3.810500	-11.356000	21.545412	0.000106	20.989456
161.051149	-2.991100	3.810300	-11.396000	21.534682	0.000105	20.963549
162.053677	-2.987900	3.810200	-11.383000	21.542890	0.000104	20.974132
163.058587	-3.015800	3.808800	-11.486000	21.554762	0.000103	20.971787
164.047653	-3.009700	3.809000	-11.463000	21.568518	0.000105	20.963743
165.057677	-2.991800	3.809300	-11.395000	21.572589	0.000107	20.975402
166.051303	-2.989800	3.807600	-11.383000	21.549422	0.000105	20.964549
167.051753	-2.980700	3.808000	-11.349000	21.564075	0.000105	20.983476
168.058572	-2.991700	3.806600	-11.387000	21.566878	0.000103	20.966368
169.052245	-3.012900	3.805800	-11.466000	21.585765	0.000105	20.962036
170.058226	-3.012200	3.805500	-11.461000	21.602797	0.000104	20.956321
171.056354	-3.001000	3.806400	-11.421000	21.576879	0.000104	20.976849
172.056479	-3.017300	3.803900	-11.476000	21.592847	0.000105	20.964855
173.055481	-3.004600	3.805100	-11.432000	21.594834	0.000103	20.961628
174.058052	-2.995500	3.804600	-11.395000	21.588134	0.000105	20.967725
175.059359	-2.985900	3.804100	-11.357000	21.591746	0.000106	20.954272
176.057398	-3.002400	3.802900	-11.416000	21.608778	0.000104	20.975580
177.060090	-3.019000	3.803900	-11.483000	21.608366	0.000105	20.969952
178.056654	-3.018000	3.802400	-11.475000	21.625077	0.000108	20.957754
179.061809	-2.985300	3.804000	-11.354000	21.632852	0.000105	20.970274
180.060375	-3.002500	3.802100	-11.415000	21.619544	0.000106	20.972603
181.059673	-2.986400	3.801100	-11.351000	21.625831	0.000106	20.954241
182.060483	-3.008200	3.801300	-11.434000	21.621760	0.000106	20.965339
183.062431	-2.972600	3.802300	-11.302000	21.644040	0.000104	20.957764
184.064642	-3.003700	3.800300	-11.414000	21.641824	0.000104	20.947013
185.060172	-2.972200	3.801300	-11.297000	21.636663	0.000104	20.968872
186.062495	-2.991200	3.800500	-11.367000	21.649802	0.000106	20.961633
187.053207	-2.978600	3.801000	-11.320000	21.630733	0.000104	20.957724
188.064178	-3.037600	3.799100	-11.539000	21.633423	0.000106	20.958045
189.060654	-2.996000	3.799800	-11.383000	21.625725	0.000105	20.966461
190.063374	-3.002700	3.799700	-11.408000	21.641707	0.000103	20.942629
191.062697	-3.020700	3.797500	-11.470000	21.657623	0.000103	20.965666
192.063886	-3.002500	3.797400	-11.401000	21.638334	0.000105	20.926928
193.066468	-3.007400	3.796200	-11.415000	21.651591	0.000102	20.943985
194.064560	-3.000100	3.797400	-11.392000	21.659620	0.000105	20.950123
195.064205	-2.988500	3.797000	-11.347000	21.667415	0.000105	20.930425
196.064694	-2.991500	3.796000	-11.355000	21.677813	0.000104	20.927555
197.065325	-2.998200	3.795800	-11.380000	21.685867	0.000104	20.922814
198.065330	-2.987400	3.795900	-11.339000	21.683560	0.000104	20.953692
199.072867	-2.982100	3.795700	-11.318000	21.697274	0.000104	20.956037
200.070809	-3.006700	3.794600	-11.409000	21.680859	0.000104	20.927285
201.068525	-3.006400	3.794600	-11.407000	21.705124	0.000104	20.968159
202.070462	-2.999600	3.794800	-11.382000	21.711681	0.000101	20.944852
203.072191	-2.990900	3.794700	-11.348000	21.712766	0.000104	20.932664
204.074929	-2.999200	3.793500	-11.376000	21.690947	0.000103	20.941172
205.066961	-3.004500	3.793900	-11.398000	21.727056	0.000105	20.952652
206.076442	-2.996400	3.793600	-11.366000	21.718874	0.000105	20.940672
207.070213	-2.998400	3.792700	-11.371000	21.714075	0.000102	20.959575
208.071524	-2.971200	3.792900	-11.269000	21.749771	0.000105	20.952627
209.073293	-2.982900	3.792400	-11.311000	21.734290	0.000103	20.926705
210.075006	-3.019600	3.791200	-11.447000	21.745711	0.000103	20.926756
211.079930	-2.982100	3.792000	-11.307000	21.735966	0.000103	20.932649
212.074362	-3.000500	3.791200	-11.375000	21.759114	0.000104	20.939694
213.074609	-2.995300	3.789800	-11.351000	21.749705	0.000104	20.933123
214.066871	-2.998700	3.789500	-11.363000	21.736465	0.000104	20.926511
215.077530	-2.992600	3.791100	-11.344000	21.738987	0.000103	20.917656
216.072240	-2.988500	3.789200	-11.323000	21.724479	9.991483E-5	20.933006
217.074372	-3.003900	3.789000	-11.381000	21.718640	0.000104	20.945179
218.075505	-3.007000	3.788700	-11.391000	21.742405	0.000103	20.933877
219.078638	-2.994200	3.789100	-11.344000	21.749639	0.000103	20.927368
220.083050	-3.008100	3.786800	-11.390000	21.772736	0.000104	20.940999
221.074690	-2.979900	3.788100	-11.287000	21.761407	0.000101	20.942936
222.077568	-2.993000	3.788500	-11.338000	21.760240	0.000103	20.924702
223.055663	-2.995000	3.786200	-11.339000	21.794977	0.000104	20.939077
224.056922	-2.986000	3.786600	-11.306000	21.794030	0.000103	20.934337
225.058019	-2.966600	3.785900	-11.230000	21.800086	0.000103	20.936605
226.060998	-3.003800	3.786200	-11.372000	21.788115	0.000102	20.921780
227.058794	-2.993700	3.784800	-11.330000	21.799485	0.000103	20.923203
228.078968	-3.015400	3.784800	-11.412000	21.788294	0.000104	20.932863
229.082866	-3.009000	3.783500	-11.383000	21.777051	0.000105	20.921612
230.075861	-3.001500	3.785400	-11.361000	21.780958	0.000103	20.922678
231.080517	-3.010800	3.785600	-11.397000	21.782160	0.000103	20.929096
232.058543	-2.998500	3.784200	-11.346000	21.807615	0.000103	20.931339
233.063932	-2.991000	3.783200	-11.315000	21.812739	0.000103	20.923666
234.060951	-3.014900	3.783000	-11.404000	21.822301	0.000103	20.918064
235.076069	-3.008200	3.783500	-11.381000	21.810819	0.000100	20.919374
236.074806	-2.992800	3.782800	-11.320000	21.819601	0.000101	20.903983
237.082740	-2.988600	3.782500	-11.304000	21.812510	0.000102	20.915377
238.080449	-3.027000	3.782000	-11.448000	21.828861	0.000103	20.926052
239.061448	-3.009600	3.781500	-11.380000	21.843506	0.000103	20.933123
240.062585	-3.004000	3.781500	-11.359000	21.821847	0.000103	20.903386
241.060935	-2.975500	3.781900	-11.252000	21.829014	0.000104	20.901551
242.064012	-2.993800	3.781200	-11.319000	21.837582	0.000103	20.909178
243.064235	-2.998800	3.780700	-11.337000	21.857708	0.000101	20.915571
244.062158	-3.002200	3.781100	-11.351000	21.863677	0.000103	20.904477
245.061997	-2.993700	3.779800	-11.315000	21.857687	0.000103	20.910809
246.068853	-2.991300	3.780100	-11.307000	21.870487	0.000102	20.924568
247.080848	-2.988600	3.779500	-11.294000	21.830623	0.000103	20.908851
248.082862	-2.992500	3.778400	-11.306000	21.847611	0.000101	20.904044
249.063188	-3.026100	3.778300	-11.433000	21.874358	0.000102	20.896677
250.079048	-3.012400	3.779300	-11.383000	21.872886	0.000102	20.905160
251.079871	-2.999700	3.778100	-11.332000	21.891656	0.000102	20.915412
252.081900	-2.990700	3.777800	-11.297000	21.884015	0.000103	20.899231
253.080197	-2.996100	3.778400	-11.319000	21.857141	0.000101	20.891298
254.080687	-3.016500	3.775600	-11.388000	21.863875	9.875974E-5	20.880022
255.086645	-3.009900	3.775700	-11.364000	21.869345	0.000100	20.900668
256.079166	-2.991500	3.776200	-11.296000	21.904017	0.000100	20.899812
257.063292	-3.014100	3.774900	-11.377000	21.876696	0.000102	20.891431
258.065781	-2.984400	3.775700	-11.268000	21.902454	0.000102	20.903936
259.063568	-3.008700	3.775300	-11.358000	21.874765	0.000103	20.913204
260.063049	-3.010800	3.774800	-11.364000	21.892012	0.000102	20.893959
261.063285	-3.007000	3.774500	-11.349000	21.915340	0.000103	20.873215
262.063827	-3.001600	3.772500	-11.323000	21.893779	0.000102	20.892883
263.061812	-3.001600	3.774700	-11.329000	21.914352	9.951880E-5	20.887398
264.069339	-2.998200	3.774000	-11.314000	21.911408	0.000100	20.877813
265.066405	-3.001400	3.772800	-11.323000	21.914291	0.000102	20.870268
266.066519	-3.007400	3.773300	-11.346000	21.951467	0.000101	20.863860
