LabVIEW Measurement	
Writer_Version	2
Reader_Version	2
Separator	Tab
Decimal_Separator	.
Multi_Headings	No
X_Columns	One
Time_Pref	Absolute
Operator	admin
Description	Clolumns are: time, Current, Voltage, Power, Battery Temp, and Chamber Temp
Date	2024/05/20
Time	16:31:59.8575258255004882812
***End_of_Header***	
	
Channels	6						
Samples	1	1	1	1	1	1	
Date	2024/06/04	2024/06/04	2024/06/04	2024/06/04	2024/06/04	2024/06/04	
Time	21:56:57.1958642005920410156	21:56:57.2019038200378417969	21:56:57.2088937759399414063	21:56:57.1788816452026367187	21:56:57.1788816452026367187	21:56:57.1788816452026367187	
X_Dimension	Time	Time	Time	Time	Time	Time	
X0	0.0000000000000000E+0	0.0000000000000000E+0	0.0000000000000000E+0	0.0000000000000000E+0	0.0000000000000000E+0	0.0000000000000000E+0	
Delta_X	1.000000	1.000000	1.000000	1.000000	1.000000	1.000000	
***End_of_Header***							
X_Value	Untitled	Untitled 1	Untitled 2	Untitled 3	Untitled 4	Untitled 5	Comment
0.000000	0.024937	4.123000	0.102840	20.729659	9.196124E-5	20.715434
1.002540	-2.989900	4.033800	-12.060000	20.707499	9.433742E-5	20.721724
2.000520	-2.991300	4.027000	-12.044000	20.698762	8.928805E-5	20.725316
2.997136	-2.994600	4.023500	-12.047000	20.690529	9.077316E-5	20.735577
4.002418	-3.010600	4.019700	-12.101000	20.712614	9.143321E-5	20.737272
5.001266	-2.966700	4.017500	-11.918000	20.708543	9.074016E-5	20.732252
6.000598	-3.024200	4.014200	-12.139000	20.709638	9.057514E-5	20.718173
7.007010	-3.016400	4.013300	-12.105000	20.715626	9.074016E-5	20.729851
8.000821	-3.018000	4.010000	-12.101000	20.733271	9.192824E-5	20.733271
9.004508	-3.014300	4.007600	-12.080000	20.731950	9.239028E-5	20.717250
10.008232	-3.003800	4.006400	-12.033000	20.721987	9.110318E-5	20.725780
10.999377	-2.994600	4.006800	-11.997000	20.740006	9.143321E-5	20.732419
12.002390	-2.970100	4.004400	-11.893000	20.724156	9.215926E-5	20.730320
13.006064	-2.994800	4.003200	-11.988000	20.720337	9.080616E-5	20.753056
14.001149	-3.003900	4.001000	-12.017000	20.702939	9.103718E-5	20.720010
15.004123	-2.996900	3.998900	-11.983000	20.745338	9.070715E-5	20.725896
16.005579	-2.998100	3.997700	-11.985000	20.730245	9.093817E-5	20.734038
17.000826	-2.996500	3.997200	-11.977000	20.732787	9.110318E-5	20.722355
18.007024	-3.011200	3.996100	-12.032000	20.737978	8.922204E-5	20.740349
19.005642	-2.996400	3.993600	-11.966000	20.726895	9.281931E-5	20.733534
20.003177	-3.012500	3.992900	-12.028000	20.744788	9.008011E-5	20.729614
21.006506	-3.010800	3.992400	-12.019000	20.740167	9.074016E-5	20.730684
22.003683	-3.010300	3.992100	-12.016000	20.773112	9.209325E-5	20.743239
23.003808	-2.979700	3.991900	-11.894000	20.752743	8.786895E-5	20.738992
24.005558	-2.987900	3.991400	-11.925000	20.769667	9.133420E-5	20.723198
25.008277	-2.970000	3.990600	-11.851000	20.745106	9.110318E-5	20.738942
26.005467	-2.992100	3.988100	-11.932000	20.765697	9.136720E-5	20.747204
27.004841	-2.987400	3.987700	-11.912000	20.760456	8.918904E-5	20.723470
28.005604	-2.994900	3.986800	-11.939000	20.763402	9.083916E-5	20.724519
29.006769	-3.026900	3.985800	-12.063000	20.774630	8.852899E-5	20.733852
30.005667	-3.005800	3.986600	-11.982000	20.766196	8.895803E-5	20.723995
31.006814	-3.028200	3.984300	-12.064000	20.770691	8.984909E-5	20.744137
32.005960	-3.006800	3.983700	-11.977000	20.772587	9.050914E-5	20.737025
33.006375	-3.012000	3.982200	-11.993000	20.777950	8.836398E-5	20.746180
34.007294	-3.009000	3.982600	-11.983000	20.786212	8.938706E-5	20.731683
35.008296	-2.999500	3.981700	-11.943000	20.778525	9.103718E-5	20.740117
36.007787	-2.994100	3.981400	-11.920000	20.779544	9.116919E-5	20.746826
37.007203	-3.003900	3.980300	-11.955000	20.789355	8.796795E-5	20.733877
38.008713	-3.010700	3.979800	-11.981000	20.796416	9.054214E-5	20.726240
39.007832	-3.002000	3.979100	-11.945000	20.811292	8.915604E-5	20.718355
40.008693	-3.013600	3.977100	-11.984000	20.801551	9.093817E-5	20.747023
41.008282	-3.002200	3.977700	-11.941000	20.796991	9.050914E-5	20.736772
42.010645	-3.000800	3.976700	-11.933000	20.832800	9.103718E-5	20.728010
43.010589	-3.005500	3.976700	-11.950000	20.822939	9.215926E-5	20.737590
44.010587	-3.007900	3.976100	-11.959000	20.810540	8.975008E-5	20.746528
45.011652	-3.008800	3.976200	-11.963000	20.815852	9.067415E-5	20.741883
46.010537	-3.006800	3.975900	-11.953000	20.820714	8.922204E-5	20.747694
47.011624	-3.025500	3.973700	-12.021000	20.825183	8.760493E-5	20.747895
48.011444	-2.999300	3.975600	-11.924000	20.826878	8.823197E-5	20.733943
49.011374	-3.020300	3.973500	-12.000000	20.838232	8.885902E-5	20.738659
50.012379	-3.019300	3.972400	-11.993000	20.852204	9.097117E-5	20.741726
51.012188	-3.003300	3.973200	-11.932000	20.842898	8.816597E-5	20.747593
52.012929	-2.986600	3.972500	-11.863000	20.845390	9.037713E-5	20.753404
53.013340	-2.972500	3.971900	-11.806000	20.854575	8.991510E-5	20.746942
54.013789	-2.986700	3.972200	-11.862000	20.840073	9.024512E-5	20.732914
55.014499	-3.000100	3.969600	-11.908000	20.861308	9.021212E-5	20.752728
56.014884	-3.000100	3.971100	-11.913000	20.861732	8.585580E-5	20.740349
57.013564	-3.015400	3.968700	-11.966000	20.861984	9.153221E-5	20.746766
58.015624	-2.987800	3.968100	-11.855000	20.873333	8.862800E-5	20.746735
59.018061	-3.003600	3.968600	-11.918000	20.862832	8.991510E-5	20.751881
60.016940	-2.991500	3.967400	-11.867000	20.889655	8.971708E-5	20.747411
61.015567	-3.003000	3.967100	-11.912000	20.866519	8.879301E-5	20.753672
62.017762	-3.009000	3.966800	-11.935000	20.887405	8.968408E-5	20.752748
63.014470	-3.014300	3.967600	-11.958000	20.886331	8.971708E-5	20.744561
64.015201	-2.999800	3.966800	-11.898000	20.893246	8.912304E-5	20.747684
65.014264	-3.019800	3.965500	-11.974000	20.888626	8.935405E-5	20.760133
66.016427	-2.988500	3.966300	-11.852000	20.898406	8.928805E-5	20.747154
67.017098	-2.994500	3.965900	-11.875000	20.894885	8.915604E-5	20.757858
68.017814	-3.033300	3.963400	-12.021000	20.920936	9.064115E-5	20.754514
69.017582	-2.995600	3.965900	-11.880000	20.933666	8.905703E-5	20.741641
70.018335	-3.008100	3.963900	-11.923000	20.936309	8.988209E-5	20.724843
71.017265	-3.012700	3.964200	-11.942000	20.927599	8.945306E-5	20.734624
72.019546	-3.010500	3.963600	-11.932000	20.927775	8.928805E-5	20.762302
73.017665	-2.998600	3.961900	-11.879000	20.929868	8.876001E-5	20.767715
74.017437	-3.007400	3.961400	-11.913000	20.935189	8.879301E-5	20.765924
75.019567	-2.997500	3.962600	-11.877000	20.949811	9.014611E-5	20.762529
76.019344	-2.994900	3.961900	-11.865000	20.946789	9.041013E-5	20.750499
77.020365	-3.009800	3.961600	-11.922000	20.931694	8.965108E-5	20.758635
78.019454	-2.993900	3.961100	-11.857000	20.964084	8.902403E-5	20.780124
79.019471	-3.003000	3.961000	-11.894000	20.941701	8.885902E-5	20.753470
80.018173	-2.982600	3.960700	-11.812000	20.954350	9.044313E-5	20.754267
81.019081	-2.985600	3.959900	-11.822000	20.948686	9.080616E-5	20.752395
82.021633	-3.004200	3.959700	-11.894000	20.974342	9.120219E-5	20.765253
83.023572	-3.017600	3.958700	-11.944000	20.964880	8.932105E-5	20.765748
84.024030	-3.013000	3.959500	-11.929000	20.976738	8.747292E-5	20.744889
85.022368	-2.996400	3.958200	-11.859000	20.977338	8.912304E-5	20.761611
86.023699	-2.990100	3.959800	-11.839000	20.977610	9.077316E-5	20.771841
87.022532	-3.006100	3.958000	-11.897000	20.992009	9.113618E-5	20.781027
88.021460	-2.995700	3.958900	-11.859000	21.001339	8.750592E-5	20.745787
89.022366	-3.003000	3.958600	-11.887000	21.012222	8.859500E-5	20.756199
90.023336	-3.000200	3.958400	-11.875000	21.002817	8.895803E-5	20.767180
91.025794	-3.008500	3.958200	-11.907000	21.004340	9.008011E-5	20.772971
92.025108	-3.010200	3.956700	-11.910000	21.022430	8.922204E-5	20.760718
93.023400	-3.000400	3.956100	-11.870000	21.022954	8.994810E-5	20.763614
94.023484	-2.988700	3.956400	-11.824000	21.007562	8.918904E-5	20.774772
95.025236	-2.996000	3.956200	-11.851000	21.026026	8.975008E-5	20.773798
96.023833	-2.993400	3.955400	-11.839000	21.014376	9.021212E-5	20.742705
97.024183	-2.992300	3.956700	-11.838000	21.027902	8.991510E-5	20.745328
98.025113	-2.996700	3.954700	-11.850000	21.040030	9.093817E-5	20.764098
99.024772	-2.982900	3.956100	-11.799000	21.020866	9.090517E-5	20.785708
100.024323	-2.994700	3.954800	-11.842000	21.053949	8.885902E-5	20.769485
101.026352	-3.001000	3.953800	-11.865000	21.057192	8.922204E-5	20.761349
102.027182	-3.012800	3.955700	-11.917000	21.048266	8.856200E-5	20.765697
103.026347	-2.993800	3.954300	-11.838000	21.045653	8.856200E-5	20.757868
104.027608	-2.991000	3.954100	-11.826000	21.070283	9.093817E-5	20.776814
105.027729	-2.998100	3.954300	-11.855000	21.057257	9.209325E-5	20.754776
106.027329	-3.002400	3.953700	-11.870000	21.068337	9.027812E-5	20.775341
107.027194	-2.993200	3.952900	-11.831000	21.070611	9.186224E-5	20.791841
108.028099	-3.010600	3.952300	-11.898000	21.082714	8.942006E-5	20.787352
109.028569	-2.999900	3.951700	-11.854000	21.079174	9.037713E-5	20.767689
110.027836	-2.986900	3.952400	-11.804000	21.051730	8.747292E-5	20.798086
111.029667	-2.981300	3.953300	-11.785000	21.072966	8.819897E-5	20.773808
112.032162	-3.014800	3.951100	-11.911000	21.102008	8.942006E-5	20.790530
113.034541	-3.000600	3.952300	-11.859000	21.090435	9.077316E-5	20.781324
114.029235	-2.989700	3.950700	-11.811000	21.108246	9.017911E-5	20.775432
115.034562	-3.017600	3.950400	-11.919000	21.117455	9.004711E-5	20.761409
116.033663	-2.999700	3.951700	-11.854000	21.101943	8.942006E-5	20.790464
117.031344	-3.004100	3.950500	-11.866000	21.108377	9.057514E-5	20.793107
118.035636	-3.004000	3.950700	-11.866000	21.134479	9.014611E-5	20.785551
119.031146	-2.993100	3.952000	-11.828000	21.122931	9.067415E-5	20.789173
120.030243	-2.998000	3.949800	-11.840000	21.103874	9.100417E-5	20.793344
121.035512	-2.987500	3.951300	-11.804000	21.122684	9.004711E-5	20.800305
122.034275	-2.999200	3.949500	-11.845000	21.131973	9.186224E-5	20.801062
123.029140	-2.991900	3.950000	-11.817000	21.145618	9.034413E-5	20.797642
124.037045	-3.001100	3.949400	-11.852000	21.155925	9.100417E-5	20.786141
125.033432	-3.018900	3.948100	-11.918000	21.136546	9.087217E-5	20.798645
126.030016	-2.990300	3.948600	-11.807000	21.153485	9.173023E-5	20.790812
127.032691	-3.006200	3.948000	-11.867000	21.150066	8.981609E-5	20.809203
128.034880	-3.022400	3.947100	-11.929000	21.154508	9.037713E-5	20.791362
129.032729	-3.006900	3.947700	-11.869000	21.170554	9.103718E-5	20.782282
130.035429	-2.997400	3.947500	-11.830000	21.184022	9.024512E-5	20.803342
131.034561	-3.008900	3.947300	-11.876000	21.167589	9.024512E-5	20.784532
132.031093	-3.010300	3.947300	-11.881000	21.189367	9.232427E-5	20.802524
133.037844	-2.995900	3.947100	-11.825000	21.176716	8.905703E-5	20.792239
134.037610	-3.017800	3.945300	-11.905000	21.194929	9.265430E-5	20.789596
135.033571	-3.009000	3.945300	-11.871000	21.181506	8.846299E-5	20.815049
136.037703	-2.998600	3.945700	-11.830000	21.198348	8.984909E-5	20.798706
137.037255	-2.994900	3.946500	-11.818000	21.193780	8.984909E-5	20.804093
138.039896	-3.025500	3.946700	-11.940000	21.215230	8.938706E-5	20.818913
139.039627	-3.011100	3.946000	-11.880000	21.232127	9.133420E-5	20.812582
140.037572	-3.013300	3.946100	-11.890000	21.209966	8.872701E-5	20.815069
141.036403	-3.020900	3.944200	-11.914000	21.231870	8.918904E-5	20.798101
142.041594	-3.001400	3.945900	-11.842000	21.222789	9.037713E-5	20.806560
143.038859	-2.989500	3.945500	-11.793000	21.225234	9.136720E-5	20.809480
144.037662	-3.014700	3.945300	-11.893000	21.215376	9.037713E-5	20.792981
145.042009	-3.009300	3.944800	-11.870000	21.234159	9.159822E-5	20.789959
146.041919	-3.017700	3.945300	-11.905000	21.250148	9.004711E-5	20.813067
147.039716	-2.998900	3.944800	-11.829000	21.219662	8.951907E-5	20.813390
148.041744	-2.989500	3.944100	-11.790000	21.249598	9.021212E-5	20.805879
149.042176	-2.982000	3.944100	-11.760000	21.239166	8.938706E-5	20.800658
150.041789	-2.995800	3.943700	-11.814000	21.252614	9.163122E-5	20.811266
151.042948	-3.005800	3.942700	-11.850000	21.231507	9.001410E-5	20.820971
152.044645	-3.019800	3.942500	-11.904000	21.259839	8.981609E-5	20.798580
153.043297	-2.995600	3.942800	-11.810000	21.279493	9.027812E-5	20.812552
154.044191	-3.007100	3.943600	-11.858000	21.263132	9.054214E-5	20.808038
155.044625	-3.004200	3.942400	-11.843000	21.269666	9.126819E-5	20.805092
156.048261	-2.995300	3.942800	-11.809000	21.284182	8.975008E-5	20.838105
157.045122	-2.996800	3.942600	-11.814000	21.275500	9.047614E-5	20.822308
158.046322	-3.012100	3.942100	-11.873000	21.275777	8.866100E-5	20.823533
159.043964	-2.991800	3.941800	-11.792000	21.289517	8.988209E-5	20.816416
160.046289	-3.008100	3.941700	-11.856000	21.296899	9.186224E-5	20.821430
161.045892	-2.998600	3.940700	-11.816000	21.296006	9.133420E-5	20.818166
162.045723	-2.990400	3.942000	-11.787000	21.296551	9.143321E-5	20.820608
163.044353	-3.021900	3.940800	-11.908000	21.313214	9.054214E-5	20.805985
164.047366	-3.008500	3.940200	-11.853000	21.279967	9.196124E-5	20.831044
165.044754	-2.998500	3.940800	-11.816000	21.295583	9.021212E-5	20.831019
166.045579	-2.975000	3.942500	-11.728000	21.307028	9.156522E-5	20.812124
167.048818	-2.997400	3.940100	-11.809000	21.320727	9.235727E-5	20.822035
168.045742	-2.972700	3.940500	-11.713000	21.314490	9.311633E-5	20.838554
169.050183	-2.995200	3.940100	-11.801000	21.312241	9.064115E-5	20.821132
170.051470	-3.002000	3.938800	-11.824000	21.323344	9.215926E-5	20.820860
171.047587	-2.994800	3.940700	-11.800000	21.323389	9.014611E-5	20.824698
172.048461	-2.994000	3.939700	-11.795000	21.325562	9.044313E-5	20.826398
173.050537	-2.987900	3.939300	-11.770000	21.332847	9.123519E-5	20.824204
174.050734	-2.994900	3.939800	-11.798000	21.332671	8.991510E-5	20.852950
175.047713	-2.991200	3.940000	-11.784000	21.356418	8.948606E-5	20.822181
176.053271	-2.990600	3.939000	-11.779000	21.355843	8.856200E-5	20.822555
177.050063	-2.990700	3.938400	-11.778000	21.349354	9.004711E-5	20.835029
178.050585	-2.982600	3.938300	-11.745000	21.371457	8.918904E-5	20.856667
179.052719	-2.975700	3.939400	-11.722000	21.359630	8.984909E-5	20.836300
180.055536	-2.993900	3.938900	-11.792000	21.382035	9.324834E-5	20.832638
181.055563	-3.012500	3.937600	-11.862000	21.371730	9.064115E-5	20.834655
182.054303	-2.994800	3.938600	-11.795000	21.391377	9.130120E-5	20.841036
183.052237	-3.016500	3.938200	-11.879000	21.392874	9.027812E-5	20.849172
184.052566	-3.004200	3.938200	-11.830000	21.401949	9.113618E-5	20.834545
185.056307	-3.012600	3.936500	-11.858000	21.387339	9.044313E-5	20.818979
186.054280	-3.016800	3.937300	-11.877000	21.421581	9.050914E-5	20.834746
187.051979	-3.020600	3.935700	-11.888000	21.411599	9.070715E-5	20.820018
188.055391	-2.985200	3.937400	-11.752000	21.412350	9.004711E-5	20.848269
189.056265	-3.008800	3.937400	-11.846000	21.415239	9.037713E-5	20.850211
190.053486	-2.989300	3.938100	-11.771000	21.431356	9.123519E-5	20.854009
191.055940	-2.994700	3.936300	-11.787000	21.418133	8.942006E-5	20.845520
192.054113	-3.021600	3.936000	-11.893000	21.417583	9.077316E-5	20.831221
193.053790	-2.990900	3.935200	-11.770000	21.440375	9.017911E-5	20.853550
194.057753	-3.013100	3.935500	-11.857000	21.411972	9.011311E-5	20.864486
195.053955	-3.013800	3.934500	-11.856000	21.431850	9.146621E-5	20.852607
196.058809	-3.003100	3.935200	-11.817000	21.424691	9.219226E-5	20.852083
197.057876	-3.014100	3.934100	-11.857000	21.448734	9.037713E-5	20.847689
198.056800	-2.989000	3.934600	-11.759000	21.462356	8.975008E-5	20.836663
199.057440	-3.009100	3.934600	-11.840000	21.466994	9.140020E-5	20.856950
200.056729	-3.009500	3.933700	-11.838000	21.463404	9.242328E-5	20.853359
201.059581	-3.001200	3.935700	-11.811000	21.491786	9.143321E-5	20.857575
202.059406	-2.990700	3.934900	-11.767000	21.454975	9.209325E-5	20.851563
203.060956	-3.025900	3.933400	-11.901000	21.468667	8.932105E-5	20.849142
204.059066	-3.015900	3.934400	-11.865000	21.472080	9.097117E-5	20.842126
205.059906	-3.018800	3.932600	-11.871000	21.483408	9.044313E-5	20.856778
206.063237	-2.989600	3.934400	-11.761000	21.477373	9.166422E-5	20.857379
207.059924	-2.987800	3.933800	-11.753000	21.488424	9.229127E-5	20.870331
208.064967	-3.004100	3.933900	-11.817000	21.462537	9.344635E-5	20.887102
209.064061	-2.988000	3.935700	-11.759000	21.500270	9.133420E-5	20.857056
210.065253	-3.027600	3.933700	-11.908000	21.506209	9.176323E-5	20.850670
211.062558	-3.010800	3.933600	-11.842000	21.501001	9.301732E-5	20.882442
212.063063	-3.027100	3.933000	-11.904000	21.497629	9.235727E-5	20.859154
213.062595	-2.999200	3.932900	-11.795000	21.491645	9.070715E-5	20.867391
214.065398	-3.016600	3.932200	-11.861000	21.501848	9.417241E-5	20.882815
215.062762	-2.997300	3.933700	-11.790000	21.528011	9.199425E-5	20.873433
216.064302	-3.000800	3.933400	-11.803000	21.524800	9.182924E-5	20.865953
217.063294	-3.012900	3.931800	-11.846000	21.533002	9.235727E-5	20.877004
218.064905	-3.025600	3.931800	-11.896000	21.532755	9.308333E-5	20.863482
219.065667	-2.995300	3.932900	-11.779000	21.527890	9.331434E-5	20.871890
220.064051	-3.007100	3.931500	-11.821000	21.546527	9.120219E-5	20.870624
221.066053	-2.993400	3.931400	-11.768000	21.558872	9.397439E-5	20.855951
222.065116	-3.012900	3.930500	-11.840000	21.522506	9.344635E-5	20.858917
223.067042	-2.996900	3.930900	-11.780000	21.553186	9.374338E-5	20.881080
224.065017	-3.004900	3.931200	-11.812000	21.545730	9.199425E-5	20.875990
225.066451	-3.000700	3.931000	-11.795000	21.546254	9.344635E-5	20.858972
226.065498	-2.989100	3.930400	-11.748000	21.548326	9.196124E-5	20.860571
227.067563	-2.999300	3.930700	-11.788000	21.571489	9.146621E-5	20.845818
228.068787	-3.017500	3.929700	-11.857000	21.578027	9.443643E-5	20.873221
229.066613	-2.995800	3.930000	-11.772000	21.583360	9.380938E-5	20.870024
230.068471	-3.023100	3.929300	-11.878000	21.576127	9.483245E-5	20.882225
231.067850	-3.018900	3.928900	-11.860000	21.567905	9.295132E-5	20.862619
232.065806	-2.998100	3.929900	-11.782000	21.567300	9.641657E-5	20.865333
233.067298	-2.992500	3.930800	-11.761000	21.567628	9.413940E-5	20.874195
234.067509	-3.017500	3.929600	-11.856000	21.584958	9.437042E-5	20.837011
235.065249	-2.997900	3.928900	-11.777000	21.566705	9.321534E-5	20.855729
236.067847	-3.004300	3.928700	-11.802000	21.599652	9.318233E-5	20.850292
237.066463	-2.987800	3.929200	-11.739000	21.575285	9.311633E-5	20.841556
238.066313	-3.003700	3.929100	-11.801000	21.584882	9.364437E-5	20.866331
239.068599	-3.018700	3.928000	-11.857000	21.620399	9.328134E-5	20.855880
240.070351	-2.984500	3.929200	-11.726000	21.594263	9.387538E-5	20.849641
241.068653	-3.001100	3.927400	-11.786000	21.585311	9.384238E-5	20.844476
242.071510	-2.984300	3.928400	-11.722000	21.593789	9.390839E-5	20.847270
243.065951	-2.989200	3.927900	-11.740000	21.598281	9.569052E-5	20.839911
244.066982	-2.989400	3.928100	-11.742000	21.604889	9.496446E-5	20.821395
245.070704	-2.989100	3.929400	-11.744000	21.589928	9.397439E-5	20.829183
246.067284	-2.987600	3.927700	-11.734000	21.601446	9.390839E-5	20.856355
247.068429	-2.999000	3.927300	-11.778000	21.614869	9.126819E-5	20.839442
248.069032	-2.982100	3.926700	-11.709000	21.614643	9.324834E-5	20.850120
249.067949	-3.005800	3.927600	-11.804000	21.610207	9.522848E-5	20.837147
250.067790	-3.003800	3.927200	-11.796000	21.632547	9.367737E-5	20.820623
251.068515	-2.984100	3.927300	-11.718000	21.644720	9.602054E-5	20.834227
252.072150	-2.984100	3.927300	-11.719000	21.639709	9.437042E-5	20.843911
253.068360	-3.001700	3.927500	-11.787000	21.650007	9.595454E-5	20.853268
254.071633	-3.010300	3.926000	-11.818000	21.651459	9.493146E-5	20.835755
255.068569	-2.995100	3.925000	-11.755000	21.651005	9.529449E-5	20.845732
256.070661	-3.002100	3.926500	-11.787000	21.645345	9.588853E-5	20.840542
257.069086	-2.996800	3.926600	-11.767000	21.652603	9.664759E-5	20.848753
