LabVIEW Measurement	
Writer_Version	2
Reader_Version	2
Separator	Tab
Decimal_Separator	.
Multi_Headings	No
X_Columns	One
Time_Pref	Absolute
Operator	admin
Description	Clolumns are: time, Current, Voltage, Power, Battery Temp, and Chamber Temp
Date	2024/08/16
Time	13:59:35.9411449432373046875
***End_of_Header***	
	
Channels	6						
Samples	1	1	1	1	1	1	
Date	2024/09/19	2024/09/19	2024/09/19	2024/09/19	2024/09/19	2024/09/19	
Time	20:41:29.3521599769592285156	20:41:29.3579497337341308594	20:41:29.3649806976318359375	20:41:29.3353848457336425781	20:41:29.3353848457336425781	20:41:29.3353848457336425781	
X_Dimension	Time	Time	Time	Time	Time	Time	
X0	0.0000000000000000E+0	0.0000000000000000E+0	0.0000000000000000E+0	0.0000000000000000E+0	0.0000000000000000E+0	0.0000000000000000E+0	
Delta_X	1.000000	1.000000	1.000000	1.000000	1.000000	1.000000	
***End_of_Header***							
X_Value	Untitled	Untitled 1	Untitled 2	Untitled 3	Untitled 4	Untitled 5	Comment
0.000000	0.023473	4.101900	0.096301	20.946072	0.000409	20.879698
1.002032	-3.000500	3.939000	-11.817000	20.961917	0.000409	20.871837
2.000549	-2.997200	3.930400	-11.780000	20.948118	0.000407	20.894545
3.001806	-3.015000	3.924600	-11.831000	20.958773	0.000407	20.891924
4.001632	-3.006000	3.920700	-11.784000	20.960020	0.000407	20.885586
5.001761	-3.026000	3.916100	-11.850000	20.960968	0.000407	20.889379
6.004010	-2.986500	3.914300	-11.689000	20.974392	0.000404	20.875779
7.002997	-3.011000	3.911000	-11.774000	20.965385	0.000405	20.879098
8.003627	-2.997100	3.909000	-11.715000	20.960819	0.000402	20.879273
9.002903	-2.980700	3.906700	-11.643000	20.946646	0.000403	20.884064
10.003968	-2.987200	3.905200	-11.664000	20.965984	0.000402	20.882068
11.004020	-2.991200	3.903500	-11.675000	20.945373	0.000402	20.866197
12.004070	-3.003100	3.901600	-11.716000	20.972895	0.000399	20.897040
13.004473	-2.992400	3.901200	-11.672000	20.971274	0.000399	20.872186
14.005470	-3.000600	3.900300	-11.702000	20.978185	0.000400	20.879572
15.004464	-3.001700	3.897400	-11.698000	20.985296	0.000398	20.885736
16.006102	-2.993200	3.896700	-11.662000	20.987591	0.000397	20.884238
17.006914	-3.006400	3.894900	-11.708000	20.982376	0.000397	20.866696
18.006242	-2.989400	3.894400	-11.641000	21.014814	0.000396	20.892973
19.009325	-2.998800	3.891900	-11.670000	21.009947	0.000394	20.869615
20.007113	-2.974500	3.893100	-11.580000	21.025618	0.000396	20.862055
21.009326	-3.002300	3.891000	-11.680000	21.022124	0.000395	20.872785
22.010626	-3.014300	3.890200	-11.724000	21.034799	0.000393	20.878349
23.008286	-3.005400	3.890000	-11.690000	21.025193	0.000392	20.876802
24.011944	-3.006900	3.888800	-11.693000	21.026515	0.000392	20.876703
25.008964	-2.996500	3.888800	-11.652000	21.044305	0.000393	20.876478
26.009597	-2.999200	3.887300	-11.658000	21.046750	0.000390	20.858536
27.007606	-2.999200	3.887300	-11.658000	21.051066	0.000388	20.864749
28.012296	-3.004700	3.886500	-11.676000	21.059923	0.000389	20.880246
29.007185	-3.009600	3.885700	-11.693000	21.061944	0.000389	20.859983
30.007677	-3.007300	3.885400	-11.684000	21.056904	0.000389	20.874855
31.010340	-3.004600	3.883400	-11.667000	21.070277	0.000387	20.866895
32.007668	-3.001000	3.885000	-11.658000	21.071849	0.000388	20.862304
33.008868	-3.003900	3.882300	-11.661000	21.080506	0.000386	20.883290
34.012553	-3.000600	3.882600	-11.649000	21.089712	0.000388	20.851723
35.009668	-2.996100	3.881700	-11.629000	21.089238	0.000385	20.867369
36.011174	-2.984000	3.881300	-11.581000	21.110944	0.000387	20.859683
37.012941	-3.007200	3.881000	-11.670000	21.117580	0.000385	20.859209
38.010395	-2.994300	3.880400	-11.619000	21.108524	0.000385	20.850625
39.011497	-2.994900	3.880400	-11.620000	21.121646	0.000385	20.858535
40.014353	-3.003800	3.879100	-11.651000	21.132474	0.000384	20.874580
41.012130	-3.013200	3.878800	-11.687000	21.131600	0.000383	20.849526
42.012614	-3.002100	3.878500	-11.643000	21.155426	0.000384	20.865772
43.018578	-2.995800	3.878200	-11.617000	21.149138	0.000382	20.852844
44.015450	-3.001100	3.877300	-11.634000	21.162161	0.000382	20.856388
45.017044	-2.986100	3.879500	-11.583000	21.154278	0.000382	20.874579
46.014587	-2.999300	3.877000	-11.625000	21.156547	0.000383	20.868790
47.017370	-2.992200	3.877700	-11.602000	21.176705	0.000381	20.860031
48.014752	-2.991000	3.876900	-11.595000	21.193020	0.000382	20.864023
49.015531	-2.973700	3.876500	-11.526000	21.201901	0.000381	20.857261
50.018059	-3.002600	3.876200	-11.638000	21.204295	0.000381	20.846854
51.016938	-3.010700	3.875000	-11.665000	21.189851	0.000381	20.862275
52.016770	-2.997900	3.874900	-11.616000	21.228019	0.000381	20.845456
53.021194	-3.006800	3.874500	-11.649000	21.221633	0.000381	20.870360
54.016874	-3.015300	3.874700	-11.682000	21.221009	0.000381	20.843186
55.016632	-2.998100	3.874400	-11.615000	21.217067	0.000377	20.862475
56.018240	-3.019300	3.873100	-11.694000	21.231661	0.000380	20.847202
57.016857	-3.006100	3.874500	-11.645000	21.244732	0.000378	20.851270
58.017117	-3.011300	3.872800	-11.661000	21.258527	0.000378	20.850845
59.017833	-3.012900	3.871900	-11.664000	21.263640	0.000378	20.855960
60.017339	-2.974700	3.874800	-11.524000	21.252265	0.000380	20.848374
61.016541	-2.994200	3.872700	-11.595000	21.277859	0.000376	20.848848
62.017445	-2.998200	3.872300	-11.610000	21.277784	0.000377	20.849721
63.016166	-2.993900	3.872100	-11.591000	21.281276	0.000376	20.855585
64.021073	-2.995100	3.871900	-11.595000	21.283296	0.000376	20.865193
65.017955	-2.993100	3.870800	-11.585000	21.293349	0.000376	20.861499
66.020374	-2.992600	3.871500	-11.585000	21.303127	0.000375	20.844730
67.018131	-2.998900	3.871400	-11.608000	21.291328	0.000376	20.846202
68.017803	-3.002300	3.871300	-11.622000	21.305746	0.000374	20.832651
69.020730	-3.006100	3.870000	-11.633000	21.334307	0.000374	20.863120
70.018451	-3.007900	3.869800	-11.638000	21.322658	0.000374	20.847199
71.018224	-3.007900	3.869400	-11.637000	21.334830	0.000374	20.848946
72.021745	-2.985500	3.869900	-11.553000	21.332161	0.000374	20.854811
73.019047	-3.002300	3.869700	-11.617000	21.346479	0.000373	20.866763
74.017874	-2.985600	3.869500	-11.551000	21.354984	0.000375	20.865790
75.021581	-3.001700	3.869800	-11.616000	21.352091	0.000373	20.846301
76.021741	-3.005100	3.868900	-11.625000	21.367879	0.000372	20.851665
77.021031	-3.002100	3.868000	-11.611000	21.368977	0.000374	20.834272
78.023010	-2.986000	3.868200	-11.550000	21.367705	0.000373	20.861448
79.020862	-2.990400	3.867500	-11.563000	21.381248	0.000374	20.850816
80.021163	-3.000700	3.867000	-11.603000	21.391999	0.000373	20.837392
81.023645	-2.983800	3.867500	-11.539000	21.400430	0.000372	20.835870
82.021206	-2.992700	3.868200	-11.576000	21.412352	0.000371	20.816030
83.021716	-3.010900	3.868200	-11.646000	21.394518	0.000373	20.834696
84.024619	-3.012900	3.867300	-11.650000	21.429039	0.000374	20.845053
85.023683	-3.002200	3.866500	-11.607000	21.446298	0.000374	20.833399
86.022967	-3.005600	3.866400	-11.619000	21.422728	0.000373	20.853437
87.027217	-3.017300	3.866300	-11.665000	21.443978	0.000373	20.853836
88.023748	-2.984700	3.866500	-11.539000	21.438965	0.000371	20.847398
89.023480	-2.979800	3.867500	-11.524000	21.453731	0.000374	20.828982
90.025333	-3.012600	3.865600	-11.644000	21.465728	0.000373	20.835296
91.023545	-3.018000	3.865500	-11.665000	21.466675	0.000373	20.830554
92.024073	-3.010500	3.865600	-11.636000	21.475953	0.000372	20.839837
93.024561	-2.991400	3.866400	-11.565000	21.475753	0.000371	20.836792
94.024411	-2.992600	3.865300	-11.566000	21.467224	0.000371	20.823991
95.023879	-3.014000	3.865100	-11.649000	21.502739	0.000370	20.840086
96.027766	-3.004500	3.865000	-11.612000	21.500569	0.000372	20.845501
97.023977	-2.984700	3.864100	-11.531000	21.495855	0.000372	20.827983
98.023064	-2.977300	3.865000	-11.506000	21.521144	0.000372	20.829106
99.028440	-3.013100	3.863800	-11.641000	21.502789	0.000369	20.823541
100.024279	-3.013200	3.863100	-11.640000	21.524088	0.000371	20.832999
101.024322	-2.991000	3.864400	-11.557000	21.521843	0.000369	20.836443
102.027877	-3.008200	3.864500	-11.623000	21.531170	0.000371	20.819698
103.027324	-2.990600	3.863600	-11.554000	21.541171	0.000370	20.826860
104.032002	-2.995600	3.864000	-11.574000	21.553865	0.000373	20.799260
105.027716	-2.983800	3.863400	-11.527000	21.542618	0.000371	20.810290
106.027423	-3.004700	3.862500	-11.605000	21.557581	0.000370	20.820522
107.032078	-3.008000	3.863400	-11.621000	21.566908	0.000370	20.820372
108.028962	-3.014400	3.861200	-11.639000	21.573243	0.000373	20.827185
109.033235	-3.008900	3.862100	-11.619000	21.580052	0.000370	20.810765
110.030062	-2.982700	3.863000	-11.521000	21.566485	0.000372	20.820897
111.030779	-2.978000	3.862700	-11.502000	21.573144	0.000372	20.837043
112.033977	-3.002300	3.861200	-11.591000	21.591923	0.000370	20.838291
113.030357	-2.997700	3.861600	-11.575000	21.607435	0.000371	20.813985
114.030993	-2.992400	3.862800	-11.558000	21.596762	0.000372	20.805676
115.034655	-3.007200	3.860900	-11.610000	21.607785	0.000371	20.829034
116.032741	-2.983300	3.861300	-11.519000	21.628733	0.000372	20.826763
117.032619	-2.987100	3.861200	-11.533000	21.645043	0.000372	20.822697
118.032030	-2.990400	3.860600	-11.542000	21.630056	0.000372	20.821923
119.032396	-3.007400	3.860100	-11.608000	21.653198	0.000372	20.831332
120.032622	-3.013400	3.860500	-11.631000	21.653772	0.000372	20.809148
121.032726	-2.992300	3.860000	-11.548000	21.643100	0.000371	20.816485
122.035588	-2.994300	3.860700	-11.559000	21.647963	0.000373	20.830834
123.033722	-3.004100	3.859200	-11.592000	21.644024	0.000373	20.821202
124.033698	-2.998100	3.858900	-11.568000	21.660407	0.000374	20.827641
125.037748	-3.015500	3.860000	-11.639000	21.658613	0.000373	20.825371
126.033588	-3.012400	3.858600	-11.622000	21.675221	0.000374	20.806430
127.034467	-3.024900	3.858500	-11.671000	21.682278	0.000374	20.804958
128.038610	-3.015200	3.858400	-11.633000	21.664375	0.000374	20.807430
129.034801	-3.000000	3.858800	-11.575000	21.683626	0.000374	20.810101
130.034901	-3.010500	3.858100	-11.614000	21.685820	0.000374	20.809926
131.036219	-2.998100	3.858400	-11.567000	21.687218	0.000375	20.815118
132.035501	-3.004400	3.857800	-11.590000	21.677668	0.000377	20.807457
133.035690	-2.981400	3.859800	-11.507000	21.709386	0.000376	20.802216
134.035540	-3.037000	3.856400	-11.710000	21.731854	0.000377	20.807158
135.037506	-2.998400	3.856900	-11.562000	21.727890	0.000375	20.819786
136.036997	-3.002100	3.856800	-11.578000	21.706121	0.000375	20.803690
137.037298	-2.993200	3.856100	-11.541000	21.740084	0.000375	20.800696
138.038313	-3.006400	3.856900	-11.595000	21.738239	0.000377	20.800271
139.036720	-3.001700	3.857200	-11.577000	21.751255	0.000378	20.817566
140.037709	-2.999100	3.856000	-11.563000	21.768036	0.000376	20.801170
141.040514	-2.982500	3.856200	-11.500000	21.780304	0.000378	20.784051
142.039334	-2.996600	3.856400	-11.555000	21.772425	0.000378	20.796080
143.087407	-2.997100	3.856200	-11.557000	21.777213	0.000377	20.791863
144.046815	-3.027700	3.855400	-11.672000	21.795465	0.000378	20.804915
145.046828	-2.987300	3.855500	-11.516000	21.780505	0.000378	20.783304
146.041814	-3.006600	3.855800	-11.592000	21.789206	0.000378	20.792013
147.041583	-3.016900	3.855400	-11.629000	21.782724	0.000376	20.802594
148.041924	-2.979100	3.856900	-11.488000	21.815637	0.000379	20.813725
149.043353	-2.994800	3.855300	-11.545000	21.806212	0.000379	20.801447
150.044177	-3.004900	3.855200	-11.583000	21.808781	0.000379	20.796432
151.041744	-2.969900	3.855700	-11.450000	21.813519	0.000379	20.818243
152.044763	-3.011200	3.855200	-11.608000	21.817284	0.000380	20.799726
153.042206	-2.992000	3.854000	-11.530000	21.837629	0.000380	20.808236
154.043283	-2.996600	3.854000	-11.548000	21.864432	0.000379	20.803295
155.044464	-3.004500	3.853400	-11.576000	21.838701	0.000381	20.815947
156.041301	-3.012800	3.853100	-11.607000	21.851817	0.000381	20.780236
157.045038	-2.991900	3.853800	-11.529000	21.851443	0.000381	20.797406
158.042240	-3.001800	3.852600	-11.563000	21.869669	0.000380	20.775820
159.042645	-3.000300	3.851600	-11.555000	21.891609	0.000381	20.803471
160.046078	-3.007900	3.852800	-11.588000	21.873285	0.000381	20.799353
161.042454	-2.994400	3.853100	-11.537000	21.904151	0.000380	20.805119
162.043005	-3.002200	3.851700	-11.562000	21.882410	0.000382	20.802798
163.044738	-2.991600	3.853000	-11.526000	21.901882	0.000382	20.794314
164.041627	-2.994400	3.852500	-11.535000	21.868150	0.000382	20.811758
165.042147	-3.009000	3.852000	-11.589000	21.905174	0.000382	20.798557
166.043750	-2.990700	3.851700	-11.519000	21.895351	0.000382	20.807690
167.046535	-2.978700	3.852700	-11.475000	21.908091	0.000384	20.811908
168.042931	-2.984900	3.852200	-11.497000	21.917640	0.000383	20.793965
169.045413	-2.998600	3.852400	-11.551000	21.914948	0.000383	20.808814
170.047961	-3.009200	3.851700	-11.590000	21.920383	0.000381	20.794814
171.045774	-2.988400	3.852000	-11.510000	21.950151	0.000382	20.823663
172.045280	-3.000200	3.850300	-11.551000	21.967053	0.000383	20.804547
173.049074	-2.994900	3.851000	-11.532000	21.936215	0.000384	20.809239
174.046076	-3.011600	3.851600	-11.599000	21.973187	0.000382	20.813057
175.045889	-2.985600	3.851200	-11.497000	21.961220	0.000385	20.809613
176.049376	-3.002700	3.850400	-11.559000	21.967028	0.000385	20.811160
177.049827	-2.998300	3.850800	-11.545000	21.971766	0.000385	20.809738
178.048052	-3.021100	3.849200	-11.628000	21.961344	0.000384	20.817324
179.052019	-3.004200	3.849800	-11.565000	21.992981	0.000385	20.806793
180.048426	-2.990000	3.849700	-11.510000	21.980766	0.000385	20.804997
181.048340	-2.991500	3.849700	-11.515000	22.001158	0.000385	20.805496
182.048584	-2.991400	3.849200	-11.514000	22.007615	0.000384	20.810063
183.051659	-3.024800	3.847400	-11.637000	22.005321	0.000387	20.795439
184.047487	-3.002100	3.849100	-11.554000	22.017362	0.000385	20.808915
185.049692	-3.018900	3.847900	-11.615000	22.028008	0.000388	20.811985
186.052568	-3.001500	3.848000	-11.549000	22.015045	0.000389	20.803750
187.049070	-3.006500	3.848600	-11.571000	22.040721	0.000386	20.818074
188.051782	-3.018800	3.847300	-11.614000	22.064678	0.000387	20.817875
189.050708	-3.001200	3.848200	-11.548000	22.043888	0.000387	20.810814
190.049473	-2.995700	3.847900	-11.526000	22.052862	0.000388	20.812685
191.051180	-2.992000	3.848000	-11.513000	22.066299	0.000387	20.801481
192.050359	-2.988900	3.848200	-11.501000	22.064679	0.000390	20.798911
193.050760	-2.988600	3.847900	-11.499000	22.059719	0.000389	20.823342
194.054407	-2.999100	3.847000	-11.536000	22.069442	0.000389	20.812213
195.052059	-3.020600	3.846800	-11.619000	22.074103	0.000390	20.821147
196.056665	-2.984800	3.848300	-11.486000	22.088287	0.000391	20.793148
197.053079	-3.003600	3.846600	-11.553000	22.081184	0.000391	20.800735
198.053442	-2.996200	3.846200	-11.523000	22.077469	0.000391	20.808396
199.057070	-2.998100	3.846400	-11.531000	22.106909	0.000389	20.817480
200.052517	-3.019100	3.845900	-11.611000	22.094520	0.000392	20.805552
201.052823	-3.001800	3.846300	-11.545000	22.141708	0.000392	20.824344
202.052366	-2.996700	3.846100	-11.524000	22.120495	0.000392	20.828711
203.054965	-2.990300	3.845300	-11.498000	22.129295	0.000391	20.807650
204.053623	-3.014800	3.844600	-11.589000	22.127899	0.000391	20.827115
205.053849	-3.006100	3.843800	-11.555000	22.122565	0.000393	20.801860
206.055625	-3.015700	3.844000	-11.591000	22.144675	0.000394	20.813091
207.055137	-2.987200	3.843900	-11.482000	22.159457	0.000395	20.800389
208.060581	-3.010300	3.844800	-11.572000	22.149412	0.000393	20.826842
209.055109	-3.000000	3.844000	-11.531000	22.159208	0.000394	20.825744
210.055594	-3.008600	3.844500	-11.566000	22.149562	0.000396	20.804707
211.057307	-3.016200	3.844200	-11.594000	22.177231	0.000395	20.808701
212.055439	-3.004600	3.844000	-11.548000	22.184709	0.000396	20.817136
213.055439	-3.024400	3.843000	-11.621000	22.179101	0.000395	20.826220
214.061934	-3.001400	3.844400	-11.538000	22.198070	0.000396	20.818660
215.055796	-3.013700	3.843400	-11.582000	22.188624	0.000397	20.835754
216.060518	-3.008600	3.843100	-11.562000	22.197822	0.000398	20.827894
217.054984	-3.040300	3.842700	-11.682000	22.212853	0.000397	20.813072
218.056195	-2.980800	3.843700	-11.456000	22.217439	0.000397	20.831888
219.060667	-3.011800	3.842400	-11.572000	22.229852	0.000399	20.846213
220.058825	-3.000900	3.843000	-11.532000	22.236932	0.000398	20.833861
221.060315	-3.025000	3.841500	-11.620000	22.216294	0.000397	20.826474
222.065626	-2.987300	3.844100	-11.483000	22.232919	0.000398	20.819413
223.062879	-2.989400	3.842500	-11.486000	22.228707	0.000400	20.827049
224.063237	-3.007900	3.841600	-11.554000	22.249420	0.000401	20.797528
225.065653	-3.010700	3.841400	-11.564000	22.251739	0.000402	20.812178
226.064012	-3.031300	3.840800	-11.641000	22.273920	0.000401	20.813524
227.063867	-2.995800	3.842800	-11.512000	22.266120	0.000401	20.821362
228.063698	-3.004400	3.842500	-11.543000	22.270856	0.000401	20.820887
229.065399	-2.991900	3.840900	-11.491000	22.274196	0.000401	20.825180
230.063317	-2.995700	3.841100	-11.505000	22.256624	0.000402	20.812328
231.064727	-3.014700	3.840400	-11.577000	22.267865	0.000401	20.818367
232.064745	-2.993900	3.840300	-11.496000	22.257198	0.000402	20.830446
233.064167	-2.999000	3.840800	-11.518000	22.279456	0.000402	20.811007
234.065006	-2.978500	3.841300	-11.441000	22.295955	0.000404	20.828950
235.067277	-3.002200	3.839900	-11.527000	22.308441	0.000402	20.818693
236.065888	-2.992100	3.839900	-11.489000	22.320653	0.000403	20.830921
237.066589	-3.002100	3.840800	-11.530000	22.325637	0.000404	20.826429
238.066048	-3.003000	3.838900	-11.527000	22.357139	0.000404	20.832842
239.065810	-2.963300	3.840900	-11.381000	22.337799	0.000405	20.838133
240.068874	-3.004700	3.839100	-11.534000	22.362148	0.000405	20.835013
241.065574	-3.021400	3.838600	-11.597000	22.340865	0.000408	20.830297
242.067230	-3.010500	3.839600	-11.559000	22.363269	0.000406	20.822860
243.071790	-3.012500	3.838400	-11.563000	22.359207	0.000406	20.845818
244.066664	-3.017700	3.837100	-11.578000	22.364516	0.000407	20.833591
245.069067	-2.993700	3.838800	-11.491000	22.356441	0.000406	20.846367
246.070749	-2.996800	3.839600	-11.505000	22.379068	0.000407	20.861913
247.068992	-2.990600	3.839000	-11.480000	22.385673	0.000408	20.838182
248.072305	-2.994300	3.837000	-11.487000	22.390582	0.000406	20.844046
249.069347	-3.004000	3.837700	-11.528000	22.402844	0.000410	20.816971
250.069779	-3.009900	3.836400	-11.547000	22.383904	0.000407	20.839729
251.074242	-3.017500	3.837600	-11.580000	22.388962	0.000409	20.849062
252.070581	-2.992200	3.837200	-11.482000	22.412337	0.000409	20.843072
253.071070	-2.999000	3.838000	-11.510000	22.414979	0.000409	20.857571
254.074959	-3.009700	3.836700	-11.547000	22.422605	0.000409	20.851457
255.073762	-3.002500	3.836000	-11.516000	22.431377	0.000410	20.848862
256.074970	-3.006500	3.836400	-11.533000	22.454826	0.000412	20.852430
257.077870	-2.980100	3.837100	-11.434000	22.446901	0.000412	20.837383
258.073987	-3.027400	3.835900	-11.612000	22.457965	0.000412	20.852729
259.075863	-3.015900	3.835800	-11.568000	22.448072	0.000414	20.847564
260.074191	-2.992100	3.837200	-11.480000	22.442715	0.000413	20.840302
261.077515	-3.015200	3.835400	-11.562000	22.478871	0.000412	20.842372
262.075392	-2.987100	3.834500	-11.453000	22.482186	0.000413	20.836684
263.077694	-3.004800	3.834900	-11.522000	22.482434	0.000412	20.859216
264.080626	-3.017600	3.834000	-11.568000	22.492153	0.000415	20.845716
265.078082	-3.007300	3.834800	-11.532000	22.471570	0.000413	20.861612
266.079282	-2.990100	3.834300	-11.463000	22.486272	0.000414	20.858318
267.082191	-2.981700	3.834400	-11.432000	22.495565	0.000416	20.851504
268.080111	-3.003700	3.833500	-11.514000	22.497808	0.000416	20.846164
269.078666	-3.008700	3.834100	-11.533000	22.524071	0.000415	20.835957
270.082536	-2.997100	3.834500	-11.492000	22.509045	0.000415	20.854099
271.078302	-2.991200	3.834600	-11.469000	22.529054	0.000417	20.864654
272.078232	-2.980700	3.834200	-11.426000	22.552576	0.000418	20.850280
