LabVIEW Measurement	
Writer_Version	2
Reader_Version	2
Separator	Tab
Decimal_Separator	.
Multi_Headings	No
X_Columns	One
Time_Pref	Absolute
Operator	admin
Description	Clolumns are: time, Current, Voltage, Power, Battery Temp, and Chamber Temp
Date	2024/07/11
Time	12:36:47.8860096931457519531
***End_of_Header***	
	
Channels	6						
Samples	1	1	1	1	1	1	
Date	2024/07/11	2024/07/11	2024/07/11	2024/07/11	2024/07/11	2024/07/11	
Time	16:33:05.183467864990234375	16:33:05.1884136199951171875	16:33:05.1965303421020507812	16:33:05.1672873497009277344	16:33:05.1672873497009277344	16:33:05.1672873497009277344	
X_Dimension	Time	Time	Time	Time	Time	Time	
X0	0.0000000000000000E+0	0.0000000000000000E+0	0.0000000000000000E+0	0.0000000000000000E+0	0.0000000000000000E+0	0.0000000000000000E+0	
Delta_X	1.000000	1.000000	1.000000	1.000000	1.000000	1.000000	
***End_of_Header***							
X_Value	Untitled	Untitled 1	Untitled 2	Untitled 3	Untitled 4	Untitled 5	Comment
0.000000	0.026679	4.125100	0.110130	20.814559	0.000220	20.763824
1.008523	-2.993000	4.001900	-11.976000	20.819997	0.000222	20.741287
2.002862	-2.991400	3.995800	-11.952000	20.802152	0.000221	20.754736
3.004742	-2.989600	3.990300	-11.928000	20.817548	0.000220	20.741682
4.005111	-3.013900	3.985100	-12.010000	20.816294	0.000218	20.733316
5.005469	-3.001100	3.982600	-11.951000	20.831370	0.000218	20.751237
6.010117	-2.997000	3.979900	-11.926000	20.801549	0.000219	20.733269
7.004460	-2.992100	3.976500	-11.897000	20.798823	0.000218	20.734810
8.007652	-3.009900	3.974900	-11.963000	20.830343	0.000217	20.741201
9.002244	-3.005500	3.972300	-11.937000	20.840321	0.000217	20.740749
10.007773	-3.010600	3.969400	-11.949000	20.830637	0.000216	20.753350
11.003998	-3.013900	3.968100	-11.958000	20.825971	0.000215	20.708853
12.006341	-3.019900	3.966800	-11.978000	20.816463	0.000213	20.754349
13.005750	-3.005200	3.963800	-11.911000	20.826615	0.000213	20.707599
14.006732	-3.002300	3.964200	-11.901000	20.853493	0.000214	20.757715
15.006254	-3.014600	3.959400	-11.935000	20.828335	0.000213	20.724494
16.005115	-2.989500	3.959600	-11.837000	20.836942	0.000212	20.727411
17.007217	-2.997000	3.958900	-11.864000	20.840559	0.000212	20.738141
18.005441	-3.015000	3.956000	-11.925000	20.826859	0.000210	20.730605
19.011123	-2.998000	3.955700	-11.857000	20.836665	0.000210	20.717651
20.008682	-2.997900	3.954200	-11.853000	20.851486	0.000210	20.726783
21.007820	-3.005000	3.951700	-11.873000	20.839984	0.000209	20.732350
22.010766	-2.957100	3.952700	-11.688000	20.872972	0.000205	20.726459
23.012255	-2.976600	3.950400	-11.758000	20.842675	0.000207	20.724609
24.010249	-2.999500	3.949800	-11.846000	20.856353	0.000207	20.739237
25.007356	-2.981700	3.949600	-11.775000	20.861044	0.000206	20.709787
26.011202	-3.002100	3.947300	-11.849000	20.871076	0.000205	20.742107
27.010018	-2.983200	3.947000	-11.774000	20.864115	0.000205	20.716178
28.013750	-3.013400	3.944500	-11.885000	20.872247	0.000205	20.726682
29.012769	-3.027100	3.944100	-11.938000	20.872398	0.000205	20.729204
30.014358	-2.998400	3.943400	-11.823000	20.863342	0.000203	20.722992
31.014871	-3.021800	3.943900	-11.916000	20.908531	0.000203	20.725511
32.013451	-3.002500	3.942100	-11.835000	20.887246	0.000201	20.733622
33.018583	-2.993000	3.944000	-11.803000	20.917665	0.000201	20.727533
34.015499	-3.026700	3.940300	-11.925000	20.890917	0.000199	20.720223
35.014398	-2.990500	3.941200	-11.786000	20.903269	0.000200	20.708393
36.011953	-2.997500	3.939500	-11.807000	20.924650	0.000199	20.731201
37.013374	-2.999300	3.938800	-11.812000	20.901250	0.000199	20.734825
38.020120	-3.005200	3.937900	-11.833000	20.908337	0.000196	20.719152
39.017642	-3.007100	3.938300	-11.841000	20.925580	0.000198	20.724544
40.014767	-3.021500	3.936800	-11.894000	20.909034	0.000197	20.737868
41.020592	-2.978500	3.935700	-11.722000	20.914601	0.000197	20.714511
42.018595	-2.984300	3.935200	-11.742000	20.919090	0.000197	20.721372
43.021531	-2.988500	3.935100	-11.759000	20.930243	0.000197	20.738691
44.024324	-2.993800	3.934700	-11.777000	20.924230	0.000196	20.708020
45.016126	-3.020600	3.933100	-11.879000	20.945115	0.000198	20.739341
46.018996	-2.990400	3.933400	-11.761000	20.953175	0.000195	20.701880
47.017658	-3.002700	3.933000	-11.809000	20.954271	0.000196	20.717202
48.017108	-3.002900	3.931400	-11.805000	20.933310	0.000194	20.699556
49.021366	-3.031500	3.929900	-11.913000	20.961184	0.000194	20.718901
50.018688	-2.994200	3.931400	-11.771000	20.954666	0.000193	20.717597
51.019351	-3.005300	3.930200	-11.811000	20.950305	0.000191	20.687629
52.020629	-3.003400	3.929100	-11.799000	20.972735	0.000193	20.697261
53.022735	-3.005000	3.930200	-11.808000	20.947307	0.000192	20.689846
54.024349	-3.015400	3.928500	-11.846000	20.980044	0.000191	20.708365
55.024330	-2.992700	3.927900	-11.754000	20.996036	0.000190	20.706816
56.020448	-2.993400	3.928100	-11.757000	21.006516	0.000190	20.700702
57.026718	-3.006800	3.926200	-11.805000	21.002821	0.000191	20.692738
58.022060	-3.014400	3.925400	-11.832000	20.992341	0.000190	20.690791
59.026321	-3.004600	3.926500	-11.796000	21.010736	0.000191	20.722942
60.023068	-2.999300	3.925800	-11.772000	21.010356	0.000191	20.686997
61.024903	-3.004000	3.925100	-11.790000	21.022660	0.000190	20.690295
62.028437	-2.995400	3.926100	-11.759000	21.017071	0.000190	20.703199
63.023070	-3.005800	3.924800	-11.797000	21.043116	0.000190	20.704593
64.024737	-3.001200	3.923400	-11.773000	21.035283	0.000189	20.698655
65.023149	-2.984600	3.923800	-11.710000	21.033732	0.000190	20.700422
66.026719	-2.985200	3.923000	-11.710000	21.034935	0.000188	20.713954
67.026511	-2.989600	3.923000	-11.728000	21.029419	0.000188	20.694211
68.027065	-2.996400	3.923000	-11.755000	21.045885	0.000186	20.695982
69.025296	-2.972500	3.923700	-11.663000	21.056785	0.000188	20.686495
70.031561	-3.005600	3.922200	-11.787000	21.041044	0.000188	20.702520
71.030544	-3.010300	3.921900	-11.805000	21.081184	0.000185	20.708056
72.030470	-3.006500	3.920500	-11.786000	21.056835	0.000187	20.677061
73.029378	-3.027700	3.919700	-11.867000	21.083608	0.000184	20.716171
74.024092	-2.994100	3.919800	-11.735000	21.077467	0.000185	20.696277
75.030852	-3.014900	3.919700	-11.817000	21.082031	0.000186	20.717439
76.030885	-3.018300	3.919800	-11.830000	21.099696	0.000185	20.699546
77.025699	-2.998200	3.920500	-11.754000	21.078983	0.000185	20.706329
78.028694	-3.024200	3.918700	-11.849000	21.080782	0.000186	20.684893
79.028349	-2.995700	3.918800	-11.739000	21.095674	0.000184	20.706429
80.030492	-3.014700	3.918700	-11.813000	21.112517	0.000185	20.703835
81.035994	-3.007900	3.918600	-11.786000	21.084922	0.000184	20.687138
82.031535	-3.001200	3.917400	-11.756000	21.105277	0.000182	20.686161
83.030778	-3.011300	3.917300	-11.795000	21.111292	0.000183	20.698817
84.033463	-2.999500	3.917000	-11.748000	21.134167	0.000183	20.712217
85.028487	-3.002400	3.917100	-11.760000	21.119721	0.000182	20.676426
86.038996	-3.011100	3.916400	-11.791000	21.118773	0.000183	20.692549
87.032072	-2.990800	3.915900	-11.711000	21.130849	0.000182	20.709846
88.033779	-2.994600	3.915800	-11.726000	21.135263	0.000183	20.684387
89.032229	-3.004700	3.916700	-11.767000	21.135762	0.000183	20.708596
90.028710	-2.998500	3.914700	-11.738000	21.144341	0.000183	20.685881
91.033715	-2.995300	3.915800	-11.729000	21.157114	0.000180	20.688701
92.037202	-2.996400	3.915000	-11.730000	21.153150	0.000182	20.695642
93.034694	-2.975800	3.914800	-11.649000	21.144636	0.000182	20.693289
94.031036	-3.019100	3.913400	-11.814000	21.166695	0.000184	20.712511
95.033215	-2.999200	3.914200	-11.738000	21.170835	0.000182	20.705273
96.032528	-3.030700	3.914200	-11.862000	21.183005	0.000181	20.705593
97.036265	-3.000400	3.914600	-11.744000	21.155190	0.000182	20.712857
98.034222	-3.005100	3.913200	-11.758000	21.177917	0.000181	20.702873
99.034327	-3.008800	3.913700	-11.775000	21.172954	0.000180	20.706918
100.033794	-3.010500	3.911700	-11.775000	21.191662	0.000181	20.700503
101.034903	-3.023600	3.913200	-11.831000	21.188894	0.000179	20.701052
102.036625	-2.994600	3.912300	-11.715000	21.191286	0.000180	20.697755
103.038304	-3.007400	3.911800	-11.763000	21.203060	0.000180	20.692463
104.037854	-3.012200	3.911900	-11.781000	21.225262	0.000181	20.712304
105.037506	-3.002000	3.911100	-11.740000	21.205954	0.000180	20.698204
106.039916	-3.004700	3.911700	-11.753000	21.224587	0.000180	20.723957
107.037491	-2.983100	3.911300	-11.666000	21.219822	0.000178	20.710655
108.040278	-3.006100	3.910100	-11.753000	21.226655	0.000179	20.704214
109.039824	-3.016000	3.910700	-11.794000	21.218946	0.000178	20.694130
110.040149	-3.014400	3.910000	-11.785000	21.238655	0.000178	20.682078
111.041183	-2.981600	3.910600	-11.659000	21.268462	0.000180	20.719959
112.041692	-2.998500	3.909900	-11.723000	21.249930	0.000179	20.694306
113.044479	-2.997500	3.910600	-11.721000	21.224038	0.000179	20.714398
114.040834	-2.989800	3.909600	-11.688000	21.270760	0.000179	20.722732
115.043954	-3.007800	3.910400	-11.761000	21.266469	0.000177	20.706111
116.043505	-2.993500	3.910200	-11.704000	21.269535	0.000179	20.721033
117.041134	-2.991300	3.909600	-11.694000	21.281908	0.000179	20.709703
118.042022	-2.988900	3.907900	-11.680000	21.278720	0.000178	20.733541
119.050175	-3.000400	3.908300	-11.725000	21.283054	0.000177	20.709427
120.044671	-3.012700	3.908400	-11.774000	21.283079	0.000178	20.709452
121.047384	-3.004200	3.908400	-11.741000	21.310568	0.000179	20.725574
122.045868	-3.011200	3.907700	-11.766000	21.286221	0.000178	20.702163
123.047810	-2.995300	3.909200	-11.709000	21.278659	0.000178	20.702659
124.051344	-2.997500	3.907500	-11.711000	21.291506	0.000179	20.688009
125.050439	-2.996800	3.909200	-11.714000	21.312435	0.000176	20.726020
126.049954	-3.000600	3.907900	-11.725000	21.328348	0.000177	20.716335
127.045845	-2.999400	3.907700	-11.720000	21.300587	0.000179	20.700888
128.049956	-2.992300	3.906600	-11.689000	21.311858	0.000176	20.720226
129.049937	-3.011500	3.907500	-11.766000	21.323857	0.000178	20.718480
130.047434	-2.973600	3.908500	-11.622000	21.331289	0.000176	20.715484
131.048523	-2.986900	3.906300	-11.666000	21.340341	0.000179	20.710315
132.053402	-3.001100	3.907000	-11.725000	21.348300	0.000178	20.721598
133.047803	-2.989200	3.905600	-11.673000	21.341863	0.000179	20.700457
134.044168	-2.995400	3.906400	-11.699000	21.353812	0.000180	20.724267
135.050904	-2.992200	3.905800	-11.686000	21.339170	0.000178	20.700134
136.050107	-3.001200	3.905300	-11.720000	21.363143	0.000180	20.710368
137.051142	-2.999800	3.904500	-11.712000	21.380031	0.000180	20.713515
138.046822	-2.994800	3.905000	-11.694000	21.362148	0.000179	20.722650
139.051115	-3.007200	3.904500	-11.741000	21.382429	0.000180	20.733459
140.051352	-3.022000	3.903800	-11.796000	21.383948	0.000179	20.720279
141.051936	-2.988500	3.905600	-11.670000	21.371278	0.000182	20.715663
142.052608	-3.001500	3.904000	-11.717000	21.360058	0.000179	20.740949
143.052922	-2.974700	3.904600	-11.613000	21.378789	0.000180	20.731239
144.052196	-3.011800	3.903300	-11.755000	21.406379	0.000181	20.724230
145.050752	-3.020500	3.903400	-11.790000	21.396327	0.000176	20.735984
146.058367	-3.017800	3.903000	-11.777000	21.389297	0.000179	20.722312
147.054485	-2.994600	3.904300	-11.690000	21.432770	0.000178	20.718393
148.056700	-2.995400	3.902800	-11.689000	21.417329	0.000178	20.720013
149.053955	-2.998800	3.904200	-11.707000	21.427633	0.000180	20.724632
150.055632	-2.993600	3.902700	-11.682000	21.421497	0.000178	20.730822
151.060634	-3.022000	3.901400	-11.789000	21.427809	0.000179	20.700151
152.059625	-2.980300	3.902400	-11.629000	21.430875	0.000177	20.732618
153.060918	-2.970300	3.903000	-11.591000	21.422470	0.000179	20.728476
154.060124	-3.001800	3.902100	-11.712000	21.449629	0.000178	20.738107
155.059631	-2.975300	3.902500	-11.610000	21.432146	0.000178	20.737683
156.057265	-3.005300	3.901500	-11.724000	21.430950	0.000179	20.712778
157.059926	-2.989000	3.901400	-11.660000	21.451726	0.000177	20.731196
158.057855	-2.999600	3.901600	-11.702000	21.469109	0.000180	20.723932
159.060412	-2.971800	3.901700	-11.593000	21.459280	0.000178	20.731167
160.059328	-2.991200	3.900400	-11.666000	21.488265	0.000179	20.732668
161.060284	-3.004500	3.900800	-11.718000	21.476716	0.000178	20.706412
162.062072	-2.999400	3.901200	-11.701000	21.475790	0.000180	20.722556
163.064806	-2.999000	3.900800	-11.697000	21.483347	0.000179	20.746714
164.061877	-3.005300	3.900100	-11.719000	21.487712	0.000178	20.731167
165.060791	-3.011900	3.900800	-11.748000	21.503648	0.000179	20.734785
166.062179	-2.994800	3.900300	-11.679000	21.505719	0.000180	20.740651
167.064156	-3.033300	3.899400	-11.827000	21.487314	0.000180	20.746890
168.063534	-3.004300	3.900100	-11.716000	21.508459	0.000179	20.732486
169.060679	-3.027200	3.899300	-11.803000	21.503497	0.000180	20.742695
170.063501	-3.008700	3.899700	-11.733000	21.516611	0.000179	20.734954
171.060859	-3.026300	3.899500	-11.800000	21.515839	0.000180	20.737501
172.069499	-3.013000	3.898200	-11.745000	21.548485	0.000180	20.751676
173.064188	-2.995400	3.898900	-11.678000	21.537034	0.000180	20.741165
174.065135	-2.981900	3.899500	-11.627000	21.514766	0.000182	20.740220
175.065439	-3.002500	3.898200	-11.703000	21.556314	0.000180	20.757139
176.067231	-3.006200	3.898600	-11.719000	21.555065	0.000182	20.731232
177.069487	-3.013200	3.898300	-11.746000	21.551378	0.000179	20.743191
178.068420	-3.014800	3.897800	-11.750000	21.562076	0.000180	20.737300
179.068199	-3.004000	3.898000	-11.708000	21.559179	0.000182	20.734401
180.068056	-2.998300	3.899000	-11.689000	21.560252	0.000180	20.758709
181.070572	-3.008900	3.897100	-11.726000	21.566462	0.000181	20.725567
182.067853	-3.007000	3.896000	-11.715000	21.577483	0.000181	20.731380
183.072630	-3.006500	3.896300	-11.713000	21.576137	0.000182	20.749000
184.069200	-2.991000	3.897000	-11.655000	21.595639	0.000180	20.737221
185.069918	-3.010100	3.897600	-11.731000	21.579830	0.000182	20.747480
186.069566	-3.029500	3.896200	-11.803000	21.586486	0.000182	20.743709
187.065479	-2.991500	3.896500	-11.656000	21.606386	0.000181	20.756037
188.076261	-2.995300	3.896300	-11.669000	21.598658	0.000180	20.735500
189.068687	-3.018000	3.895900	-11.757000	21.612797	0.000180	20.743011
190.071798	-2.999700	3.895800	-11.685000	21.607635	0.000182	20.753019
191.075622	-2.999100	3.895500	-11.682000	21.625091	0.000182	20.731132
192.072361	-3.012100	3.896300	-11.735000	21.604792	0.000181	20.755390
193.073350	-3.015900	3.894700	-11.744000	21.622923	0.000182	20.754093
194.078767	-2.990200	3.894600	-11.644000	21.616814	0.000183	20.737073
195.073258	-2.996000	3.894100	-11.666000	21.609132	0.000184	20.746931
196.070457	-2.976400	3.896600	-11.597000	21.625845	0.000184	20.751801
197.074818	-2.988600	3.895000	-11.639000	21.655544	0.000184	20.758289
198.071691	-2.989500	3.894800	-11.642000	21.646739	0.000185	20.751848
199.072607	-3.007900	3.893400	-11.710000	21.646269	0.000183	20.750903
200.074198	-3.009000	3.893500	-11.715000	21.654822	0.000185	20.770369
201.076523	-2.993200	3.893200	-11.653000	21.662353	0.000183	20.763206
202.076286	-3.008500	3.893600	-11.713000	21.662683	0.000185	20.753105
203.077243	-2.981900	3.895400	-11.615000	21.679937	0.000184	20.758993
204.078208	-2.997700	3.893700	-11.671000	21.678763	0.000185	20.754499
205.081785	-2.993600	3.893300	-11.655000	21.688490	0.000184	20.768501
206.079984	-2.988900	3.893500	-11.636000	21.665827	0.000184	20.763364
207.078649	-3.014700	3.893400	-11.736000	21.694628	0.000185	20.763738
208.077862	-2.999100	3.894000	-11.678000	21.696372	0.000186	20.756474
209.079059	-2.983500	3.894800	-11.619000	21.692984	0.000186	20.767308
210.083018	-2.998900	3.892200	-11.671000	21.704006	0.000187	20.784029
211.078642	-2.978700	3.892200	-11.593000	21.709566	0.000185	20.759721
212.077350	-2.996300	3.892600	-11.662000	21.713159	0.000185	20.769481
213.077977	-2.997100	3.892600	-11.665000	21.712936	0.000187	20.778268
214.079186	-2.982500	3.893500	-11.612000	21.696928	0.000187	20.759401
215.087955	-3.004900	3.891900	-11.692000	21.716105	0.000187	20.798035
216.081167	-3.023700	3.892400	-11.769000	21.734859	0.000188	20.779345
217.081552	-2.993400	3.891100	-11.647000	21.737676	0.000188	20.764621
218.081462	-3.020900	3.892000	-11.757000	21.738473	0.000187	20.757357
219.082302	-2.990600	3.892600	-11.640000	21.742715	0.000188	20.783889
220.081597	-2.986500	3.892300	-11.623000	21.766504	0.000188	20.773084
221.082957	-3.015500	3.889100	-11.727000	21.749696	0.000188	20.770487
222.082047	-3.007900	3.891700	-11.704000	21.750647	0.000188	20.761007
223.084047	-3.012100	3.889800	-11.715000	21.776478	0.000187	20.787334
224.091067	-3.012600	3.890200	-11.718000	21.770322	0.000188	20.801562
225.080650	-3.000200	3.890400	-11.670000	21.760596	0.000189	20.784241
226.084113	-2.994300	3.889600	-11.645000	21.797050	0.000190	20.787535
227.084032	-3.023800	3.889300	-11.760000	21.784136	0.000189	20.787412
228.081280	-2.984000	3.890800	-11.608000	21.790044	0.000189	20.791903
229.085102	-3.001800	3.889700	-11.675000	21.788651	0.000190	20.795250
230.085118	-2.971400	3.889800	-11.557000	21.793288	0.000189	20.795624
231.084183	-2.981500	3.891000	-11.601000	21.792068	0.000191	20.788238
232.089813	-3.002000	3.888600	-11.673000	21.799773	0.000191	20.787890
233.090423	-2.985500	3.889800	-11.611000	21.820291	0.000190	20.795624
234.085025	-3.029900	3.888200	-11.780000	21.819868	0.000192	20.781924
235.089115	-3.008100	3.889000	-11.698000	21.831463	0.000192	20.794952
236.085607	-3.013800	3.888700	-11.719000	21.812162	0.000192	20.794600
237.086424	-3.008400	3.888500	-11.697000	21.838218	0.000191	20.806454
238.090714	-3.008800	3.888400	-11.698000	21.840511	0.000191	20.794525
239.090311	-3.000400	3.888600	-11.666000	21.840066	0.000192	20.806881
240.087152	-3.003900	3.887600	-11.677000	21.858365	0.000193	20.797696
241.091079	-3.015100	3.887300	-11.720000	21.849590	0.000193	20.770896
242.088766	-3.004900	3.887800	-11.681000	21.843156	0.000192	20.802862
243.092006	-3.014800	3.886300	-11.716000	21.843906	0.000192	20.783224
244.091945	-3.009900	3.886800	-11.699000	21.868690	0.000195	20.779581
245.088727	-3.001100	3.887000	-11.664000	21.867717	0.000194	20.797574
246.092255	-3.006700	3.887500	-11.688000	21.862607	0.000197	20.803839
247.089456	-3.005200	3.886100	-11.678000	21.870534	0.000195	20.798971
248.097582	-2.996800	3.887400	-11.649000	21.873201	0.000195	20.793580
249.093001	-2.985100	3.886500	-11.600000	21.877288	0.000194	20.788662
250.092964	-2.991100	3.886000	-11.622000	21.898059	0.000197	20.793332
251.090879	-2.996800	3.885800	-11.644000	21.878738	0.000197	20.792010
252.093492	-2.998200	3.886600	-11.651000	21.895763	0.000198	20.823749
253.097286	-2.991200	3.887700	-11.628000	21.904788	0.000196	20.810498
254.098585	-3.010200	3.886600	-11.699000	21.900055	0.000198	20.811924
255.095287	-3.028200	3.885400	-11.764000	21.905488	0.000198	20.807880
256.097053	-3.017800	3.885500	-11.725000	21.917679	0.000198	20.809177
257.095054	-2.997800	3.886700	-11.651000	21.927978	0.000197	20.828020
258.093730	-3.010000	3.885400	-11.695000	21.918726	0.000198	20.804536
259.096708	-2.996300	3.885500	-11.641000	21.920173	0.000199	20.838699
260.094575	-3.024900	3.884500	-11.748000	21.895167	0.000198	20.808929
261.096443	-2.993600	3.885400	-11.631000	21.926977	0.000198	20.816587
262.096174	-2.995900	3.886100	-11.642000	21.941883	0.000199	20.804956
263.096665	-2.993100	3.884900	-11.626000	21.947671	0.000200	20.815965
264.098722	-3.028800	3.883500	-11.761000	21.933160	0.000200	20.825621
265.101850	-3.029000	3.883800	-11.763000	21.963967	0.000200	20.808096
266.096102	-2.990700	3.884700	-11.617000	21.940685	0.000199	20.821300
267.098269	-2.976400	3.884400	-11.561000	21.958111	0.000201	20.814561
268.098518	-2.998200	3.884100	-11.645000	21.942078	0.000200	20.809892
269.096214	-2.990200	3.884300	-11.614000	21.959607	0.000200	20.796619
270.102619	-3.010300	3.883200	-11.689000	21.972769	0.000202	20.826390
271.099996	-2.990700	3.883200	-11.612000	21.998620	0.000202	20.814335
272.098974	-3.009900	3.882000	-11.683000	21.993883	0.000201	20.836620
