LabVIEW Measurement	
Writer_Version	2
Reader_Version	2
Separator	Tab
Decimal_Separator	.
Multi_Headings	No
X_Columns	One
Time_Pref	Absolute
Operator	admin
Description	Clolumns are: time, Current, Voltage, Power, Battery Temp, and Chamber Temp
Date	2024/08/16
Time	13:59:35.9411449432373046875
***End_of_Header***	
	
Channels	6						
Samples	1	1	1	1	1	1	
Date	2024/08/27	2024/08/27	2024/08/27	2024/08/27	2024/08/27	2024/08/27	
Time	02:08:03.0841073989868164063	02:08:03.0891070365905761719	02:08:03.0952153205871582031	02:08:03.0661063194274902344	02:08:03.0661063194274902344	02:08:03.0661063194274902344	
X_Dimension	Time	Time	Time	Time	Time	Time	
X0	0.0000000000000000E+0	0.0000000000000000E+0	0.0000000000000000E+0	0.0000000000000000E+0	0.0000000000000000E+0	0.0000000000000000E+0	
Delta_X	1.000000	1.000000	1.000000	1.000000	1.000000	1.000000	
***End_of_Header***							
X_Value	Untitled	Untitled 1	Untitled 2	Untitled 3	Untitled 4	Untitled 5	Comment
0.000000	0.029473	4.020300	0.118520	20.937024	0.000319	20.845045
0.997581	-2.997000	3.895200	-11.673000	20.948031	0.000318	20.841355
1.999345	-2.985300	3.890400	-11.614000	20.946326	0.000316	20.823055
3.004066	-3.002400	3.885200	-11.664000	20.955873	0.000317	20.826440
4.003131	-3.005000	3.878500	-11.653000	20.952400	0.000316	20.829604
5.001926	-3.025100	3.874700	-11.721000	20.951735	0.000320	20.838421
5.998480	-2.976000	3.873600	-11.527000	20.961114	0.000318	20.828836
7.006988	-2.987700	3.869900	-11.561000	20.964227	0.000319	20.817725
7.998948	-2.993400	3.868200	-11.578000	20.949441	0.000318	20.833283
9.000385	-2.995500	3.863800	-11.574000	20.954311	0.000319	20.835308
9.999983	-2.982600	3.861500	-11.516000	20.957372	0.000320	20.840741
11.008929	-2.989500	3.859600	-11.537000	20.962690	0.000318	20.840369
12.007263	-3.001900	3.855800	-11.573000	20.968188	0.000318	20.824057
13.009580	-3.020900	3.854400	-11.643000	20.956707	0.000320	20.850032
14.007199	-3.005800	3.851700	-11.577000	20.967842	0.000320	20.832246
15.011769	-2.983700	3.851000	-11.489000	20.970507	0.000321	20.832540
16.006627	-3.021600	3.849600	-11.631000	20.968636	0.000320	20.834463
17.000579	-2.985800	3.849000	-11.491000	20.972366	0.000321	20.834874
18.002860	-2.985200	3.846200	-11.480000	20.969341	0.000319	20.819995
19.016953	-3.004200	3.844300	-11.549000	20.989495	0.000322	20.826876
20.003972	-2.985100	3.843100	-11.471000	21.004154	0.000322	20.856235
21.002500	-3.002200	3.841900	-11.533000	21.014981	0.000323	20.830081
22.015271	-2.979800	3.840600	-11.444000	21.011637	0.000322	20.828159
23.009165	-2.974300	3.840800	-11.422000	20.995621	0.000323	20.828736
24.015990	-3.000400	3.838500	-11.516000	20.987036	0.000322	20.825839
25.012173	-3.003600	3.835900	-11.521000	20.992085	0.000322	20.809078
26.011874	-3.000000	3.835300	-11.505000	21.020438	0.000323	20.819893
27.004981	-2.991100	3.833700	-11.466000	21.031316	0.000325	20.820341
28.005020	-3.006800	3.832200	-11.521000	21.017274	0.000324	20.817202
29.013349	-2.982400	3.832300	-11.428000	21.012585	0.000324	20.818202
30.007541	-3.031300	3.830600	-11.610000	21.036825	0.000325	20.821584
31.006553	-2.997200	3.829100	-11.476000	21.044270	0.000324	20.815754
32.018102	-3.001300	3.829000	-11.491000	21.023014	0.000324	20.833374
33.007727	-3.010400	3.827900	-11.522000	21.053340	0.000326	20.812498
34.007442	-3.004500	3.826700	-11.496000	21.057774	0.000326	20.804606
35.019156	-3.009400	3.825600	-11.511000	21.060759	0.000327	20.806168
36.016420	-2.994100	3.825400	-11.453000	21.062335	0.000327	20.791624
37.007897	-2.988200	3.823500	-11.424000	21.062143	0.000327	20.805182
38.020712	-2.997300	3.823500	-11.458000	21.056121	0.000328	20.812435
39.012078	-2.982600	3.822900	-11.401000	21.068280	0.000327	20.821278
40.006667	-3.001300	3.821300	-11.468000	21.060156	0.000326	20.814574
41.007199	-3.011100	3.820400	-11.502000	21.072315	0.000328	20.813460
42.012663	-3.017500	3.820000	-11.525000	21.105409	0.000329	20.807682
43.008418	-2.996800	3.819300	-11.445000	21.094738	0.000327	20.809810
44.011535	-2.976100	3.818700	-11.364000	21.087947	0.000329	20.818190
45.014919	-2.992900	3.818400	-11.427000	21.118348	0.000329	20.809718
46.014403	-2.999100	3.817900	-11.449000	21.115364	0.000329	20.798673
47.013034	-3.010900	3.816400	-11.489000	21.115172	0.000332	20.806542
48.019805	-3.000100	3.815500	-11.446000	21.102873	0.000331	20.818421
49.011292	-3.004800	3.815000	-11.463000	21.112622	0.000331	20.803517
50.016014	-2.982300	3.815500	-11.377000	21.113328	0.000332	20.796636
51.008517	-3.001200	3.814800	-11.448000	21.131558	0.000332	20.812974
52.008923	-3.005900	3.813500	-11.462000	21.143882	0.000334	20.810604
53.016019	-3.008200	3.811300	-11.465000	21.129482	0.000333	20.819433
54.027357	-3.016700	3.811400	-11.496000	21.127560	0.000333	20.816088
55.014678	-3.011400	3.811200	-11.476000	21.124370	0.000333	20.795828
56.014462	-2.992600	3.811200	-11.405000	21.143793	0.000333	20.788704
57.013800	-3.023700	3.808900	-11.516000	21.158730	0.000334	20.808387
58.012771	-3.027200	3.809800	-11.532000	21.163624	0.000334	20.800481
59.017653	-3.016200	3.810300	-11.491000	21.160281	0.000335	20.796662
60.024824	-2.989500	3.808200	-11.384000	21.168210	0.000335	20.803171
61.019906	-3.007800	3.808900	-11.454000	21.176871	0.000335	20.804722
62.022334	-3.003100	3.808600	-11.437000	21.187696	0.000336	20.802275
63.018890	-3.009900	3.807200	-11.458000	21.175166	0.000337	20.808233
64.022769	-2.991700	3.805500	-11.384000	21.189989	0.000338	20.805042
65.020744	-3.023100	3.805100	-11.502000	21.178484	0.000336	20.784051
66.018453	-3.022200	3.804800	-11.498000	21.175257	0.000337	20.789358
67.019180	-3.020900	3.804200	-11.491000	21.197804	0.000339	20.822343
68.023972	-2.997300	3.803500	-11.398000	21.210998	0.000338	20.792394
69.023563	-2.990500	3.805100	-11.378000	21.218262	0.000340	20.791600
70.019121	-2.966800	3.804200	-11.286000	21.207809	0.000340	20.803428
71.021075	-3.015200	3.801600	-11.462000	21.223207	0.000338	20.804134
72.024126	-2.992700	3.801900	-11.377000	21.228907	0.000342	20.785179
73.017657	-2.988500	3.801700	-11.360000	21.213842	0.000341	20.809938
74.028944	-3.018800	3.800800	-11.473000	21.234134	0.000342	20.807004
75.019247	-3.002600	3.799500	-11.408000	21.222682	0.000342	20.816410
76.026987	-3.008300	3.799000	-11.428000	21.239540	0.000342	20.793920
77.019094	-3.009800	3.799800	-11.436000	21.242806	0.000342	20.778221
78.028734	-3.001300	3.798600	-11.400000	21.245895	0.000343	20.796010
79.031128	-3.002100	3.797000	-11.397000	21.254067	0.000342	20.791857
80.024841	-3.007600	3.797200	-11.420000	21.252876	0.000342	20.802046
81.019034	-2.992500	3.797400	-11.363000	21.265993	0.000342	20.805685
82.022224	-2.995600	3.797800	-11.375000	21.288232	0.000344	20.808018
83.026758	-3.004500	3.794800	-11.401000	21.273731	0.000343	20.807261
84.023488	-3.024400	3.794500	-11.474000	21.287015	0.000343	20.801586
85.021274	-2.991600	3.794700	-11.352000	21.293125	0.000345	20.798689
86.037766	-3.015400	3.793500	-11.438000	21.281431	0.000345	20.802163
87.022478	-3.023400	3.793200	-11.467000	21.278382	0.000344	20.817130
88.021503	-3.012000	3.793600	-11.425000	21.300837	0.000347	20.797870
89.024324	-3.020000	3.792600	-11.453000	21.298610	0.000345	20.791848
90.025980	-3.013300	3.792200	-11.427000	21.315863	0.000347	20.800574
91.019474	-2.997700	3.793000	-11.368000	21.316491	0.000345	20.811634
92.025972	-2.994800	3.792800	-11.358000	21.310484	0.000346	20.803253
93.042456	-2.995800	3.790800	-11.356000	21.314136	0.000346	20.791260
94.030567	-2.983600	3.791600	-11.312000	21.323703	0.000347	20.806995
95.027189	-2.998000	3.789800	-11.362000	21.336271	0.000348	20.805818
96.026240	-2.995000	3.789200	-11.348000	21.332862	0.000345	20.800511
97.041366	-3.010200	3.788900	-11.404000	21.349629	0.000348	20.809226
98.031131	-2.986500	3.788400	-11.313000	21.358737	0.000349	20.802691
99.029216	-3.014000	3.786800	-11.412000	21.347722	0.000349	20.827706
100.028527	-3.004800	3.788000	-11.382000	21.333478	0.000348	20.803025
101.035493	-3.019900	3.787500	-11.437000	21.361018	0.000349	20.823939
102.037178	-3.005300	3.785800	-11.376000	21.366245	0.000350	20.800719
103.029000	-2.975100	3.786700	-11.264000	21.384471	0.000349	20.809471
104.042582	-3.002400	3.786100	-11.367000	21.363170	0.000349	20.811868
105.028964	-2.978600	3.785700	-11.275000	21.399073	0.000350	20.819814
106.027112	-3.013700	3.784000	-11.403000	21.392413	0.000349	20.810305
107.025546	-2.998800	3.783300	-11.345000	21.404595	0.000351	20.805898
108.026496	-3.016400	3.784200	-11.413000	21.397383	0.000351	20.811485
109.026696	-2.980500	3.782000	-11.271000	21.394194	0.000350	20.822519
110.038187	-2.998600	3.782300	-11.341000	21.427136	0.000349	20.817546
111.029560	-2.980400	3.782900	-11.273000	21.417775	0.000350	20.811025
112.028177	-2.981400	3.781900	-11.273000	21.407118	0.000351	20.810793
113.032706	-2.985000	3.781300	-11.286000	21.438806	0.000350	20.812627
114.039134	-2.992600	3.780300	-11.311000	21.430713	0.000351	20.814960
115.034541	-3.012000	3.780100	-11.385000	21.424846	0.000350	20.814306
116.047493	-2.993700	3.781200	-11.319000	21.435158	0.000352	20.817037
117.044797	-3.003400	3.779100	-11.349000	21.445147	0.000352	20.802850
118.030258	-3.015900	3.779200	-11.397000	21.445786	0.000354	20.822456
119.037895	-3.019900	3.777900	-11.407000	21.466100	0.000351	20.830927
120.038952	-2.992200	3.779000	-11.306000	21.468510	0.000353	20.833812
121.030044	-2.978300	3.777400	-11.249000	21.462309	0.000354	20.825237
122.035849	-3.040100	3.776100	-11.478000	21.480907	0.000355	20.837682
123.031360	-3.005500	3.777400	-11.352000	21.484801	0.000355	20.830673
124.032825	-2.993200	3.775800	-11.301000	21.482046	0.000353	20.803735
125.044547	-3.010100	3.774900	-11.362000	21.473965	0.000354	20.828365
126.036391	-3.018300	3.774600	-11.392000	21.503051	0.000354	20.816691
127.042198	-2.998800	3.775700	-11.322000	21.503385	0.000354	20.814655
128.036014	-2.990700	3.774200	-11.287000	21.510621	0.000354	20.819050
129.035161	-3.014000	3.773400	-11.373000	21.500644	0.000353	20.841309
130.043606	-3.016500	3.773300	-11.381000	21.516935	0.000354	20.822049
131.038095	-3.002600	3.772100	-11.326000	21.520469	0.000355	20.824637
132.033291	-3.009300	3.772200	-11.350000	21.536517	0.000355	20.832635
133.033985	-2.998800	3.772300	-11.312000	21.524940	0.000352	20.822946
134.033992	-2.978000	3.773000	-11.235000	21.539398	0.000353	20.819396
135.039776	-3.020900	3.770500	-11.388000	21.541590	0.000354	20.821589
136.037792	-3.010500	3.770100	-11.347000	21.539335	0.000356	20.855842
137.037744	-2.992100	3.769400	-11.278000	21.550593	0.000357	20.829176
138.036568	-2.994700	3.769500	-11.288000	21.560198	0.000357	20.812235
139.041002	-3.001400	3.770600	-11.316000	21.570431	0.000358	20.841440
140.060339	-3.006800	3.769300	-11.332000	21.549057	0.000357	20.837596
141.043788	-3.016600	3.768000	-11.366000	21.571890	0.000357	20.836736
142.040308	-2.995800	3.768100	-11.287000	21.566974	0.000356	20.855998
143.041138	-2.994800	3.767500	-11.283000	21.586310	0.000354	20.832200
144.045271	-3.010200	3.766900	-11.338000	21.579999	0.000357	20.833471
145.042122	-2.974900	3.767900	-11.208000	21.580153	0.000357	20.839315
146.043783	-2.986300	3.766000	-11.245000	21.580396	0.000357	20.854730
147.045079	-2.997700	3.765800	-11.287000	21.601692	0.000358	20.832894
148.042773	-3.003100	3.765400	-11.307000	21.623719	0.000356	20.841660
149.049023	-2.991100	3.764200	-11.258000	21.605380	0.000357	20.837533
150.041609	-3.000100	3.764600	-11.293000	21.629879	0.000357	20.852091
151.046109	-2.982800	3.764800	-11.228000	21.626856	0.000357	20.850015
152.050540	-2.975000	3.764300	-11.198000	21.644772	0.000356	20.831909
153.045830	-2.993300	3.764300	-11.266000	21.634334	0.000358	20.838058
154.045325	-3.001300	3.763000	-11.293000	21.634925	0.000358	20.869468
155.045992	-3.009200	3.762200	-11.320000	21.625295	0.000357	20.859831
156.047673	-3.003900	3.762100	-11.300000	21.649100	0.000355	20.845722
157.044532	-3.002500	3.760900	-11.292000	21.692780	0.000356	20.860037
158.048316	-3.015200	3.760100	-11.336000	21.645783	0.000356	20.840980
159.043714	-3.011300	3.760300	-11.323000	21.655016	0.000356	20.846901
160.045010	-2.999200	3.760500	-11.278000	21.672393	0.000359	20.855756
161.044881	-3.017700	3.759900	-11.345000	21.685199	0.000358	20.856718
162.047567	-2.997500	3.760000	-11.269000	21.683099	0.000356	20.866469
163.047678	-3.012300	3.757700	-11.318000	21.679077	0.000357	20.857703
164.045709	-3.000800	3.758900	-11.279000	21.688990	0.000358	20.850080
165.046479	-3.027600	3.758000	-11.376000	21.712742	0.000357	20.857729
166.050135	-2.999000	3.757700	-11.269000	21.693982	0.000358	20.863136
167.047283	-2.997100	3.758000	-11.263000	21.709925	0.000356	20.857755
168.051384	-2.997700	3.756000	-11.259000	21.706942	0.000358	20.850503
169.059771	-3.010300	3.756700	-11.308000	21.702998	0.000359	20.860305
170.057162	-2.997600	3.755700	-11.256000	21.734664	0.000358	20.864495
171.048983	-3.009700	3.755200	-11.301000	21.733305	0.000356	20.867403
172.049897	-3.007100	3.755000	-11.291000	21.730502	0.000359	20.871236
173.051610	-3.001400	3.756000	-11.272000	21.756868	0.000356	20.861588
174.053719	-2.990000	3.755300	-11.227000	21.742167	0.000358	20.866315
175.057251	-2.994200	3.755100	-11.242000	21.746148	0.000358	20.859869
176.061049	-3.005200	3.753100	-11.277000	21.755778	0.000357	20.871876
177.053843	-3.013600	3.752900	-11.309000	21.766508	0.000358	20.844211
178.054502	-2.986600	3.752700	-11.207000	21.758223	0.000356	20.874798
179.053978	-3.000400	3.752400	-11.257000	21.758965	0.000358	20.884549
180.055274	-3.033200	3.751400	-11.379000	21.792039	0.000358	20.871185
181.053450	-3.002000	3.753000	-11.265000	21.795010	0.000358	20.863253
182.056018	-2.991400	3.751300	-11.220000	21.817904	0.000356	20.868148
183.054118	-2.994400	3.751100	-11.232000	21.799365	0.000358	20.875671
184.055906	-2.989300	3.750700	-11.211000	21.801466	0.000357	20.865446
185.064892	-3.002300	3.750700	-11.259000	21.786523	0.000357	20.880835
186.055034	-2.994100	3.750500	-11.228000	21.806842	0.000356	20.879836
187.057534	-3.004500	3.748500	-11.261000	21.814922	0.000357	20.885077
188.055009	-3.000800	3.749400	-11.250000	21.828571	0.000358	20.897789
189.061450	-2.996700	3.748700	-11.233000	21.842361	0.000357	20.879350
190.055902	-3.015500	3.748500	-11.303000	21.833169	0.000356	20.866831
191.055337	-2.999300	3.748600	-11.242000	21.824564	0.000360	20.880504
192.055462	-2.981900	3.749400	-11.179000	21.856113	0.000357	20.895010
193.060065	-2.968100	3.749400	-11.128000	21.831645	0.000356	20.858669
194.056832	-3.021100	3.746600	-11.316000	21.852003	0.000356	20.881889
195.056796	-3.009800	3.746900	-11.276000	21.855294	0.000355	20.881389
196.059443	-3.001900	3.747300	-11.248000	21.861760	0.000357	20.870793
197.057426	-2.994500	3.747700	-11.221000	21.874716	0.000357	20.897983
198.057695	-2.990000	3.746000	-11.199000	21.892486	0.000357	20.885899
199.057106	-3.003300	3.744300	-11.244000	21.881719	0.000356	20.867537
200.058599	-3.007300	3.745300	-11.263000	21.882361	0.000358	20.882403
201.060054	-2.991100	3.745400	-11.201000	21.900079	0.000357	20.887810
202.059576	-2.986800	3.745300	-11.186000	21.902742	0.000359	20.891897
203.057947	-2.999800	3.744700	-11.232000	21.914712	0.000356	20.893448
204.058045	-2.998800	3.744600	-11.227000	21.908389	0.000358	20.896127
205.060090	-3.008200	3.743300	-11.259000	21.919053	0.000356	20.889732
206.059617	-2.999100	3.742800	-11.224000	21.926914	0.000357	20.871050
207.062602	-3.024800	3.741700	-11.317000	21.931331	0.000357	20.883531
208.061572	-3.008400	3.741700	-11.256000	21.927670	0.000356	20.888401
209.061229	-2.982000	3.742500	-11.159000	21.946655	0.000356	20.880852
210.059094	-3.004900	3.740900	-11.240000	21.944888	0.000355	20.886670
211.059746	-2.977900	3.742900	-11.145000	21.935657	0.000358	20.882172
212.073410	-2.997000	3.740800	-11.211000	21.967753	0.000356	20.899600
213.060208	-2.999600	3.740600	-11.219000	21.961302	0.000357	20.908788
214.060325	-2.983200	3.740400	-11.158000	21.972567	0.000357	20.918167
215.064000	-3.010500	3.738400	-11.254000	21.972387	0.000355	20.889066
216.058982	-2.995400	3.740000	-11.201000	21.982348	0.000356	20.898089
217.062991	-2.979900	3.740200	-11.145000	21.974961	0.000356	20.899702
218.061830	-3.044600	3.736900	-11.376000	21.985139	0.000355	20.892348
219.064324	-3.003400	3.738800	-11.228000	22.003560	0.000355	20.879021
220.061956	-3.012800	3.737200	-11.258000	21.993588	0.000355	20.906020
221.066538	-3.012200	3.737600	-11.258000	22.028804	0.000355	20.918038
222.062244	-3.014700	3.737700	-11.267000	22.006542	0.000355	20.923254
223.062938	-2.987700	3.737300	-11.165000	22.005213	0.000355	20.902010
224.062856	-3.002000	3.736900	-11.218000	22.031980	0.000355	20.887555
225.065973	-3.000000	3.737000	-11.211000	22.010742	0.000353	20.911812
226.064078	-3.017900	3.736800	-11.277000	22.029509	0.000354	20.923011
227.065940	-3.003900	3.735800	-11.221000	22.048865	0.000354	20.916310
228.068746	-3.000900	3.736600	-11.212000	22.040750	0.000353	20.923833
229.064795	-3.015500	3.734100	-11.259000	22.045909	0.000353	20.910033
230.067556	-2.988400	3.736400	-11.165000	22.035797	0.000353	20.911289
231.067472	-3.014300	3.733900	-11.254000	22.046383	0.000352	20.917618
232.065830	-2.945000	3.736800	-11.003000	22.060874	0.000352	20.915531
233.076640	-3.007000	3.734100	-11.228000	22.058403	0.000355	20.941029
234.070885	-3.011400	3.733500	-11.242000	22.079691	0.000353	20.915876
235.067637	-3.002200	3.733500	-11.206000	22.074595	0.000352	20.904612
236.071096	-2.984800	3.732500	-11.140000	22.074404	0.000354	20.946615
237.066980	-3.001300	3.731900	-11.199000	22.081919	0.000352	20.938019
238.066262	-2.986500	3.733000	-11.147000	22.092442	0.000354	20.925321
239.076914	-2.989600	3.732500	-11.157000	22.102975	0.000351	20.922591
240.076141	-3.012600	3.731800	-11.242000	22.072972	0.000354	20.939493
241.069120	-2.998100	3.729800	-11.181000	22.120102	0.000352	20.920771
242.069726	-3.005400	3.731000	-11.212000	22.105178	0.000354	20.928114
243.069984	-2.993500	3.730200	-11.165000	22.125800	0.000353	20.921260
244.080230	-2.999100	3.729100	-11.182000	22.113218	0.000353	20.940429
245.070106	-2.982700	3.729600	-11.123000	22.111272	0.000351	20.929000
246.071297	-2.990600	3.729700	-11.153000	22.119786	0.000351	20.952693
247.077617	-3.022500	3.728500	-11.268000	22.155919	0.000352	20.931973
248.071777	-3.005600	3.728900	-11.207000	22.155394	0.000350	20.944248
249.073012	-2.999200	3.729600	-11.185000	22.128142	0.000351	20.930716
250.075649	-2.998600	3.728200	-11.178000	22.144285	0.000351	20.937393
251.074360	-3.013900	3.727400	-11.233000	22.143249	0.000351	20.937305
252.073424	-2.998500	3.727700	-11.176000	22.162153	0.000353	20.948169
253.076657	-3.002000	3.726800	-11.187000	22.191977	0.000351	20.932512
254.081996	-2.968800	3.727900	-11.067000	22.177436	0.000350	20.940238
255.078382	-2.977200	3.726700	-11.094000	22.179370	0.000350	20.929374
256.075816	-2.985200	3.726600	-11.123000	22.172714	0.000350	20.958742
257.076263	-2.983200	3.725800	-11.114000	22.181827	0.000350	20.940840
258.078457	-2.989600	3.726100	-11.139000	22.194128	0.000349	20.942251
259.079233	-2.989600	3.724600	-11.135000	22.195204	0.000349	20.944750
260.078556	-2.977200	3.725600	-11.091000	22.208116	0.000351	20.947721
261.077704	-3.006600	3.723500	-11.194000	22.229888	0.000350	20.956243
262.081760	-3.021500	3.723200	-11.249000	22.222990	0.000351	20.934166
263.078102	-3.001100	3.723300	-11.173000	22.237300	0.000350	20.963662
264.078273	-2.994300	3.724000	-11.150000	22.236441	0.000351	20.966595
265.080380	-2.998400	3.723500	-11.163000	22.222057	0.000349	20.973055
266.079189	-3.001700	3.723300	-11.174000	22.234319	0.000348	20.942188
267.078424	-2.994600	3.722300	-11.146000	22.243174	0.000349	20.973335
268.078345	-2.986500	3.722000	-11.115000	22.250919	0.000349	20.966867
269.078597	-3.003400	3.722500	-11.179000	22.267019	0.000348	20.954066
270.079939	-3.001200	3.722800	-11.172000	22.252659	0.000349	20.964342
271.085856	-3.027700	3.720700	-11.263000	22.267659	0.000346	20.949491
272.077734	-2.996700	3.722400	-11.154000	22.277309	0.000347	20.951567
