LabVIEW Measurement	
Writer_Version	2
Reader_Version	2
Separator	Tab
Decimal_Separator	.
Multi_Headings	No
X_Columns	One
Time_Pref	Absolute
Operator	admin
Description	Clolumns are: time, Current, Voltage, Power, Battery Temp, and Chamber Temp
Date	2024/06/17
Time	15:57:50.5498118400573730469
***End_of_Header***	
	
Channels	6						
Samples	1	1	1	1	1	1	
Date	2024/06/18	2024/06/18	2024/06/18	2024/06/18	2024/06/18	2024/06/18	
Time	09:59:17.1976962089538574219	09:59:17.206295013427734375	09:59:17.2141861915588378906	09:59:17.1772961616516113281	09:59:17.1772961616516113281	09:59:17.1772961616516113281	
X_Dimension	Time	Time	Time	Time	Time	Time	
X0	0.0000000000000000E+0	0.0000000000000000E+0	0.0000000000000000E+0	0.0000000000000000E+0	0.0000000000000000E+0	0.0000000000000000E+0	
Delta_X	1.000000	1.000000	1.000000	1.000000	1.000000	1.000000	
***End_of_Header***							
X_Value	Untitled	Untitled 1	Untitled 2	Untitled 3	Untitled 4	Untitled 5	Comment
0.000000	-0.005181	3.942900	-0.020371	20.796030	0.000116	20.830643
0.997797	-2.993400	3.846800	-11.514000	20.825775	0.000118	20.808706
1.997950	-2.978100	3.842700	-11.443000	20.833140	0.000117	20.817967
3.003413	-3.012300	3.838300	-11.560000	20.826123	0.000116	20.812847
3.999154	-3.009900	3.833800	-11.538000	20.821899	0.000114	20.803882
4.999022	-3.025900	3.829500	-11.587000	20.824346	0.000115	20.802535
5.995635	-3.029000	3.826800	-11.591000	20.827140	0.000117	20.801536
6.995814	-3.015700	3.824200	-11.531000	20.847105	0.000114	20.806803
7.998004	-2.997000	3.821900	-11.453000	20.835839	0.000115	20.804071
8.998285	-2.985800	3.820500	-11.406000	20.827981	0.000113	20.810438
9.998196	-3.002100	3.818500	-11.462000	20.835415	0.000112	20.813131
11.005108	-3.013600	3.816700	-11.501000	20.833272	0.000113	20.811462
11.998270	-3.015500	3.813300	-11.498000	20.833911	0.000113	20.800721
13.000469	-2.997600	3.812000	-11.427000	20.851378	0.000112	20.817240
14.003207	-2.996300	3.808800	-11.411000	20.843615	0.000111	20.810899
15.001211	-2.983000	3.809300	-11.362000	20.858439	0.000112	20.790163
15.998735	-2.987800	3.807800	-11.376000	20.849507	0.000113	20.798299
17.000107	-3.007900	3.804800	-11.443000	20.836250	0.000112	20.791206
17.999570	-2.997200	3.802800	-11.397000	20.845852	0.000111	20.806973
19.004977	-3.004500	3.802200	-11.423000	20.854817	0.000111	20.786540
20.004160	-2.996000	3.800400	-11.385000	20.857630	0.000109	20.802155
21.000285	-3.004100	3.799300	-11.412000	20.860272	0.000112	20.775400
22.004809	-3.010300	3.795300	-11.424000	20.859653	0.000110	20.788057
23.005081	-2.997600	3.795900	-11.377000	20.866859	0.000109	20.794790
24.004547	-2.977300	3.795200	-11.299000	20.860993	0.000109	20.783233
25.002041	-2.990600	3.792500	-11.341000	20.874136	0.000109	20.774091
26.001896	-3.014500	3.791600	-11.428000	20.872720	0.000110	20.776943
27.003527	-2.993800	3.790500	-11.348000	20.886166	0.000110	20.791338
28.006791	-3.002100	3.788800	-11.374000	20.855392	0.000108	20.772890
29.004486	-2.985400	3.788600	-11.309000	20.875880	0.000110	20.799544
30.008433	-2.997700	3.785900	-11.348000	20.886463	0.000109	20.783575
31.008062	-3.000100	3.785700	-11.356000	20.886513	0.000110	20.774142
32.007551	-3.004900	3.784400	-11.371000	20.891444	0.000109	20.776702
33.008090	-3.015600	3.784600	-11.412000	20.893789	0.000109	20.775729
34.008232	-3.012800	3.783000	-11.396000	20.887651	0.000106	20.778599
35.005834	-2.996500	3.783200	-11.335000	20.894560	0.000108	20.781242
36.004417	-3.011700	3.780500	-11.385000	20.883232	0.000107	20.784137
37.007184	-2.988900	3.780100	-11.297000	20.897702	0.000110	20.784858
38.007497	-3.002300	3.778700	-11.344000	20.905857	0.000108	20.759822
39.005990	-2.990300	3.779000	-11.300000	20.907873	0.000106	20.756623
40.007170	-2.985600	3.778900	-11.282000	20.905332	0.000107	20.772574
41.012021	-2.990500	3.777600	-11.295000	20.914359	0.000106	20.767851
42.009559	-2.996700	3.777200	-11.317000	20.912810	0.000108	20.773889
43.011038	-2.979200	3.775300	-11.247000	20.917475	0.000107	20.778080
44.007452	-3.014200	3.773400	-11.373000	20.915250	0.000107	20.767320
45.008297	-2.990000	3.773500	-11.282000	20.905092	0.000105	20.774230
46.009035	-3.005600	3.772600	-11.337000	20.907639	0.000107	20.758286
47.008328	-3.006600	3.773300	-11.343000	20.927577	0.000107	20.779174
48.008296	-2.996000	3.772600	-11.302000	20.925731	0.000106	20.776380
49.010274	-3.002200	3.771800	-11.323000	20.932564	0.000107	20.773731
50.008465	-2.997400	3.770600	-11.301000	20.941699	0.000106	20.759632
51.009811	-2.982200	3.770200	-11.243000	20.942274	0.000105	20.757363
52.010045	-2.997100	3.767100	-11.289000	20.917817	0.000105	20.763248
53.012064	-3.020300	3.768200	-11.379000	20.971560	0.000107	20.752039
54.011565	-3.005600	3.767600	-11.322000	20.957141	0.000107	20.769862
55.012259	-3.002400	3.767600	-11.312000	20.955144	0.000105	20.747474
56.015092	-2.998000	3.767300	-11.294000	20.927198	0.000104	20.757457
57.016150	-3.001800	3.765700	-11.303000	20.958785	0.000105	20.767712
58.016316	-2.981200	3.766900	-11.228000	20.970814	0.000107	20.764570
59.017878	-2.979800	3.765200	-11.219000	20.957268	0.000106	20.753392
60.013920	-3.007300	3.763700	-11.317000	20.961509	0.000105	20.756686
61.019280	-3.004200	3.763800	-11.306000	20.971320	0.000105	20.754170
62.021894	-3.001900	3.762000	-11.292000	20.987091	0.000106	20.750503
63.018513	-3.005600	3.762300	-11.307000	20.986440	0.000105	20.753171
64.018214	-3.012400	3.762300	-11.332000	20.994114	0.000103	20.754208
65.022697	-3.019400	3.761200	-11.356000	20.985953	0.000104	20.755055
66.022852	-3.020700	3.761400	-11.361000	20.982515	0.000103	20.757306
67.023205	-3.014100	3.760000	-11.332000	20.993595	0.000105	20.747999
68.023209	-3.000300	3.760200	-11.281000	20.992559	0.000103	20.768300
69.021974	-2.992900	3.760800	-11.254000	20.993090	0.000105	20.740381
70.023525	-2.995900	3.759800	-11.264000	20.999651	0.000105	20.730822
71.020185	-2.998900	3.759300	-11.273000	21.000631	0.000106	20.741760
72.019829	-2.987800	3.758600	-11.229000	21.022495	0.000104	20.738023
73.021827	-3.003100	3.757100	-11.282000	21.011073	0.000104	20.760739
74.023531	-3.000100	3.757100	-11.271000	21.010656	0.000105	20.768857
75.024405	-2.988000	3.759200	-11.230000	21.018943	0.000104	20.730677
76.023845	-2.995000	3.756500	-11.250000	21.024044	0.000105	20.745263
77.023312	-3.029700	3.756400	-11.379000	21.005492	0.000105	20.764641
78.026287	-3.018600	3.756700	-11.339000	21.026434	0.000104	20.755240
79.021714	-3.018800	3.753900	-11.331000	21.036559	0.000104	20.754462
80.024076	-2.985800	3.755700	-11.212000	21.025163	0.000105	20.743063
81.022119	-2.979900	3.755100	-11.188000	21.038570	0.000104	20.765956
82.020737	-3.010800	3.753900	-11.301000	21.023747	0.000103	20.746863
83.027982	-3.009200	3.753600	-11.294000	21.032692	0.000104	20.761499
84.025688	-2.984000	3.753900	-11.201000	21.039183	0.000105	20.754716
85.023986	-3.025800	3.752000	-11.352000	21.033299	0.000104	20.738398
86.029065	-2.994200	3.752700	-11.236000	21.048544	0.000104	20.757915
87.029081	-3.012100	3.751400	-11.299000	21.055586	0.000106	20.749784
88.028087	-2.997800	3.752000	-11.247000	21.048228	0.000106	20.758547
89.029165	-2.991500	3.751900	-11.223000	21.064668	0.000104	20.772620
90.024697	-3.003000	3.751100	-11.262000	21.078694	0.000104	20.724533
91.026738	-3.006400	3.750200	-11.274000	21.064599	0.000105	20.733669
92.028304	-3.018500	3.749700	-11.318000	21.064871	0.000104	20.755753
93.026263	-3.000900	3.750000	-11.252000	21.074478	0.000106	20.743077
94.032939	-2.974600	3.751000	-11.157000	21.066419	0.000104	20.744499
95.030416	-2.994000	3.749600	-11.225000	21.071710	0.000103	20.754058
96.024920	-2.981800	3.749700	-11.179000	21.081936	0.000104	20.749589
97.028913	-2.997800	3.747100	-11.232000	21.084136	0.000104	20.750840
98.029014	-2.991700	3.747600	-11.211000	21.080735	0.000105	20.754551
99.029626	-2.991900	3.747500	-11.211000	21.086771	0.000104	20.745416
100.030818	-3.025100	3.748200	-11.337000	21.077809	0.000103	20.745934
101.029937	-3.014700	3.746900	-11.295000	21.087814	0.000103	20.716111
102.032566	-3.028200	3.746000	-11.343000	21.080685	0.000103	20.736956
103.031582	-3.007000	3.746100	-11.264000	21.089963	0.000104	20.753824
104.028161	-3.001900	3.746700	-11.246000	21.095550	0.000102	20.743291
105.030788	-3.021100	3.745300	-11.314000	21.117273	0.000102	20.733251
106.028031	-3.015200	3.744800	-11.291000	21.107673	0.000102	20.761582
107.030074	-3.001600	3.744900	-11.239000	21.115529	0.000101	20.745257
108.027668	-2.979600	3.745000	-11.158000	21.102010	0.000101	20.719879
109.032413	-3.010700	3.744200	-11.272000	21.124807	0.000103	20.739839
110.034459	-3.003900	3.744200	-11.246000	21.113108	0.000102	20.730033
111.027946	-2.995200	3.744600	-11.214000	21.128498	0.000102	20.760602
112.028603	-2.976500	3.744900	-11.145000	21.108557	9.943022E-5	20.738758
113.029200	-2.991000	3.744100	-11.198000	21.130065	0.000102	20.744151
114.029302	-3.002500	3.743200	-11.237000	21.119510	0.000103	20.745447
115.030259	-2.998800	3.743000	-11.223000	21.145632	0.000104	20.728427
116.034678	-2.995000	3.741600	-11.205000	21.138945	0.000102	20.732644
117.030322	-2.968600	3.742400	-11.108000	21.140443	0.000102	20.739358
118.031681	-3.000000	3.742100	-11.224000	21.135722	0.000103	20.730368
119.031587	-3.002100	3.740100	-11.228000	21.141663	0.000101	20.728250
120.032148	-3.009300	3.740600	-11.256000	21.131936	0.000100	20.727055
121.034498	-2.972700	3.741600	-11.121000	21.145455	0.000102	20.746269
122.031863	-3.004800	3.741500	-11.241000	21.146207	0.000101	20.730899
123.033450	-2.994900	3.740500	-11.201000	21.137991	0.000101	20.736905
124.033578	-3.019100	3.739000	-11.287000	21.142143	0.000102	20.720670
125.034884	-2.997700	3.739000	-11.208000	21.158398	0.000102	20.722705
126.038918	-3.021800	3.738100	-11.294000	21.147054	0.000102	20.723211
127.037637	-3.012900	3.740500	-11.268000	21.165957	0.000103	20.730741
128.036597	-3.000000	3.738200	-11.214000	21.179109	0.000102	20.729198
129.040052	-2.994500	3.738300	-11.193000	21.166829	0.000101	20.729242
130.038549	-2.998300	3.737500	-11.205000	21.188513	9.929824E-5	20.718216
131.038595	-3.022700	3.737900	-11.297000	21.158455	0.000102	20.724659
132.041429	-2.989200	3.737500	-11.172000	21.179710	0.000103	20.703719
133.037516	-2.986800	3.737100	-11.161000	21.175165	0.000102	20.727150
134.043505	-2.997800	3.735700	-11.198000	21.203232	0.000102	20.708284
135.036725	-3.002300	3.736400	-11.217000	21.196843	0.000102	20.728446
136.039816	-3.028500	3.734500	-11.309000	21.184740	0.000101	20.704484
137.044953	-2.990700	3.737300	-11.175000	21.188835	0.000102	20.731816
138.044553	-2.999900	3.736200	-11.207000	21.197171	0.000100	20.721188
139.047327	-3.001600	3.736100	-11.214000	21.198612	0.000102	20.727845
140.041202	-2.997700	3.735000	-11.196000	21.197013	0.000101	20.719607
141.045281	-3.000200	3.735200	-11.205000	21.209514	0.000101	20.705084
142.051131	-2.971400	3.734700	-11.097000	21.214721	0.000102	20.714562
143.045610	-3.009900	3.734600	-11.240000	21.217268	0.000102	20.712842
144.042128	-2.986700	3.734600	-11.153000	21.196369	0.000101	20.691459
145.046086	-3.015300	3.732400	-11.254000	21.212547	0.000101	20.701480
146.043820	-2.983000	3.734200	-11.138000	21.216346	0.000102	20.702909
147.045717	-3.015500	3.732100	-11.253000	21.206935	0.000102	20.713411
148.043413	-3.016000	3.732100	-11.255000	21.230957	0.000101	20.702827
149.046627	-3.003300	3.732100	-11.208000	21.220403	0.000103	20.696062
150.045574	-2.996700	3.732300	-11.184000	21.230634	0.000102	20.689701
151.044555	-2.983100	3.732500	-11.132000	21.220927	0.000103	20.711761
152.047441	-2.996900	3.731800	-11.183000	21.237788	0.000102	20.706816
153.044355	-3.006300	3.731800	-11.218000	21.232372	0.000101	20.718469
154.043501	-3.021100	3.729800	-11.267000	21.238363	0.000102	20.723988
155.043596	-3.011800	3.729200	-11.230000	21.259837	0.000102	20.714650
156.044576	-2.996900	3.731600	-11.183000	21.259464	0.000102	20.698629
157.047104	-2.998200	3.730900	-11.184000	21.253581	0.000101	20.709339
158.045408	-2.986300	3.730900	-11.141000	21.268274	0.000101	20.700329
159.045787	-2.987100	3.730100	-11.141000	21.253246	0.000100	20.697149
160.046777	-3.017000	3.728000	-11.246000	21.243621	0.000103	20.688468
161.046426	-2.989200	3.728800	-11.145000	21.253195	0.000100	20.717489
162.050418	-2.994600	3.729300	-11.166000	21.252999	9.962818E-5	20.692635
163.048735	-3.012300	3.727800	-11.228000	21.266814	0.000101	20.701714
164.048468	-3.005100	3.727300	-11.200000	21.261878	0.000102	20.704363
165.049942	-2.982800	3.729100	-11.122000	21.264476	9.926524E-5	20.686571
166.047993	-2.988600	3.728400	-11.142000	21.298101	0.000102	20.683227
167.047850	-2.998100	3.728000	-11.176000	21.268684	0.000101	20.705482
168.048691	-3.016400	3.726600	-11.240000	21.282404	9.946321E-5	20.703086
169.048338	-3.001300	3.727200	-11.186000	21.261417	9.969417E-5	20.690150
170.048346	-3.012200	3.724800	-11.218000	21.271894	9.946321E-5	20.689726
171.048557	-3.004300	3.726200	-11.194000	21.275914	9.949621E-5	20.696118
172.047934	-3.011800	3.725900	-11.221000	21.291207	9.880331E-5	20.700038
173.051822	-3.005600	3.725300	-11.196000	21.291725	9.735154E-5	20.701505
174.050237	-3.023300	3.724300	-11.258000	21.304395	9.751651E-5	20.690472
175.047822	-2.994600	3.724700	-11.153000	21.286979	9.863834E-5	20.689644
176.054862	-2.996900	3.724700	-11.162000	21.295510	9.943022E-5	20.687747
177.047517	-3.007700	3.724500	-11.202000	21.301772	9.741753E-5	20.710609
178.051657	-3.003800	3.723400	-11.183000	21.303516	9.949621E-5	20.673944
179.049833	-3.022300	3.722800	-11.250000	21.296363	9.929824E-5	20.692868
180.051069	-3.009000	3.722500	-11.200000	21.317311	9.771448E-5	20.673047
181.051598	-3.006600	3.723500	-11.194000	21.297829	9.576778E-5	20.694335
182.051113	-2.996500	3.723900	-11.158000	21.296868	9.761549E-5	20.684838
183.054229	-3.004500	3.722400	-11.182000	21.306575	9.665864E-5	20.676530
184.047546	-3.018300	3.721600	-11.231000	21.320818	9.698859E-5	20.693153
185.052769	-2.981900	3.723500	-11.102000	21.317330	9.880331E-5	20.690137
186.050155	-2.977400	3.721100	-11.079000	21.312388	9.679062E-5	20.669544
187.052553	-2.999000	3.721200	-11.159000	21.323952	9.665864E-5	20.676846
188.051017	-2.972900	3.721500	-11.063000	21.347554	9.745052E-5	20.686710
189.053151	-2.992000	3.722000	-11.135000	21.322360	9.566879E-5	20.666717
190.053109	-2.995600	3.720900	-11.145000	21.327794	9.797844E-5	20.673577
191.056167	-2.997100	3.720100	-11.149000	21.336774	9.890230E-5	20.679717
192.052476	-2.991800	3.720500	-11.130000	21.325298	9.787945E-5	20.673925
193.052532	-2.988100	3.720300	-11.115000	21.351693	9.642768E-5	20.677573
194.053850	-2.988500	3.719300	-11.115000	21.346253	9.728555E-5	20.670707
195.054469	-2.982800	3.720100	-11.095000	21.338442	9.698859E-5	20.680912
196.052732	-2.999700	3.719000	-11.155000	21.338467	9.794544E-5	20.658175
197.050494	-3.018100	3.719000	-11.223000	21.353829	9.613072E-5	20.665484
198.053463	-2.998000	3.717700	-11.145000	21.353406	9.886930E-5	20.672648
199.053547	-3.006000	3.717400	-11.174000	21.371516	9.570179E-5	20.662791
200.053916	-2.974700	3.718600	-11.059000	21.354903	9.606473E-5	20.661343
201.057584	-3.008100	3.717900	-11.182000	21.376129	9.586676E-5	20.676416
202.053837	-2.997100	3.717200	-11.140000	21.364925	9.523986E-5	20.681803
203.053452	-2.994300	3.716800	-11.129000	21.374675	9.467895E-5	20.674014
204.058918	-2.985200	3.717500	-11.096000	21.394409	9.596575E-5	20.655823
205.053535	-3.011900	3.716600	-11.194000	21.387401	9.490991E-5	20.663512
206.054761	-3.017800	3.714700	-11.209000	21.375952	9.484392E-5	20.679559
207.054319	-3.007900	3.715700	-11.175000	21.396526	9.692260E-5	20.680703
208.053986	-2.986800	3.715700	-11.097000	21.389543	9.665864E-5	20.674191
209.056191	-2.989400	3.715800	-11.107000	21.393960	9.553682E-5	20.704217
210.052617	-3.007300	3.714300	-11.169000	21.408569	9.646067E-5	20.671889
211.053174	-2.970500	3.715300	-11.035000	21.414578	9.662565E-5	20.672212
212.055739	-2.985600	3.715900	-11.093000	21.410888	9.517387E-5	20.651922
213.052963	-3.004300	3.713700	-11.156000	21.397770	9.392006E-5	20.658238
214.055467	-3.005100	3.713000	-11.156000	21.397069	9.454697E-5	20.681721
215.055127	-2.989500	3.714200	-11.103000	21.411710	9.596575E-5	20.675031
216.055637	-3.008600	3.713100	-11.171000	21.430312	9.487692E-5	20.677997
217.055380	-3.000000	3.712600	-11.137000	21.423601	9.388707E-5	20.677447
218.054513	-2.989600	3.712700	-11.099000	21.411583	9.451397E-5	20.654988
219.056778	-2.999100	3.713200	-11.135000	21.426046	9.240230E-5	20.658554
220.055137	-3.015900	3.712200	-11.195000	21.428669	9.322717E-5	20.670188
221.055685	-2.998700	3.713300	-11.134000	21.420107	9.260027E-5	20.657827
222.055924	-2.991100	3.712300	-11.102000	21.434122	9.213834E-5	20.674222
223.058668	-3.011600	3.711500	-11.177000	21.439966	9.441499E-5	20.670587
224.063801	-3.017700	3.710300	-11.196000	21.442222	9.217133E-5	20.626845
225.064979	-2.989500	3.712900	-11.098000	21.456672	9.359011E-5	20.663119
226.059044	-3.028500	3.710200	-11.236000	21.460855	9.164341E-5	20.663037
227.056851	-3.034100	3.711400	-11.260000	21.440819	9.184138E-5	20.681872
228.061988	-2.994600	3.710900	-11.111000	21.447460	9.118149E-5	20.638252
229.064260	-2.996200	3.709500	-11.114000	21.444313	9.319418E-5	20.654545
230.059761	-2.994000	3.708900	-11.104000	21.471773	9.203935E-5	20.663056
231.062309	-2.986700	3.709200	-11.077000	21.474218	9.075255E-5	20.670245
232.066193	-2.975500	3.710300	-11.040000	21.466510	9.230331E-5	20.663954
233.059919	-2.991700	3.709300	-11.097000	21.491448	9.276524E-5	20.669467
234.063971	-2.995100	3.708700	-11.106000	21.485983	9.075255E-5	20.643133
235.067150	-2.999500	3.708900	-11.123000	21.483936	9.134646E-5	20.672382
236.064036	-3.003000	3.708500	-11.135000	21.478995	9.104951E-5	20.663170
237.059950	-3.001400	3.708000	-11.127000	21.502714	9.174240E-5	20.641381
238.063965	-3.003200	3.706700	-11.130000	21.479418	9.289722E-5	20.665490
239.062736	-3.001200	3.707400	-11.126000	21.510719	9.065357E-5	20.663144
240.065893	-2.997800	3.707400	-11.113000	21.486078	9.312819E-5	20.645124
241.060699	-2.995700	3.707200	-11.105000	21.501469	9.091753E-5	20.670011
242.064845	-3.013800	3.706300	-11.169000	21.489066	9.038961E-5	20.662816
243.064993	-2.994500	3.707600	-11.101000	21.494032	8.982869E-5	20.651188
244.066365	-2.997700	3.707400	-11.113000	21.511963	9.250128E-5	20.654906
245.069269	-2.995300	3.706600	-11.101000	21.519899	8.877286E-5	20.669486
246.063612	-3.005900	3.705900	-11.139000	21.501640	9.015864E-5	20.649316
247.064182	-2.974600	3.705900	-11.022000	21.518124	8.963072E-5	20.661545
248.066340	-2.990900	3.704700	-11.079000	21.531941	8.877286E-5	20.663517
249.066125	-2.969100	3.704900	-10.999000	21.532889	8.814595E-5	20.674424
250.067986	-2.986300	3.704900	-11.064000	21.535062	8.923479E-5	20.652889
251.072902	-3.012500	3.704500	-11.158000	21.541096	8.893783E-5	20.668885
252.066208	-3.002700	3.703400	-11.119000	21.536383	9.045560E-5	20.666065
253.066142	-3.015200	3.702200	-11.162000	21.561850	8.936677E-5	20.659781
254.069304	-2.994400	3.703600	-11.089000	21.545721	8.900382E-5	20.663555
255.070482	-2.993800	3.703400	-11.086000	21.551628	8.943276E-5	20.670890
256.070890	-3.016600	3.702100	-11.167000	21.554673	8.600128E-5	20.678679
257.071620	-2.988800	3.703700	-11.068000	21.548115	8.831093E-5	20.680178
258.070140	-3.001100	3.701400	-11.106000	21.566722	8.880585E-5	20.671295
259.075585	-3.018600	3.700800	-11.170000	21.575573	8.857489E-5	20.653597
260.072822	-3.005400	3.702400	-11.126000	21.569148	8.972971E-5	20.680836
261.067826	-3.022800	3.701700	-11.188000	21.571511	8.821194E-5	20.659964
262.071170	-3.005500	3.703200	-11.129000	21.564750	8.755204E-5	20.683548
263.069601	-3.011300	3.700900	-11.144000	21.558224	8.768402E-5	20.642399
264.075611	-3.008700	3.700900	-11.134000	21.603636	8.900382E-5	20.643272
265.075243	-3.004600	3.701100	-11.119000	21.590622	8.751905E-5	20.667235
266.074772	-3.002300	3.701400	-11.111000	21.598873	8.715611E-5	20.657473
267.076293	-3.014300	3.699900	-11.152000	21.611066	8.834392E-5	20.657821
268.071292	-3.004300	3.699800	-11.114000	21.596308	8.613326E-5	20.664390
