LabVIEW Measurement	
Writer_Version	2
Reader_Version	2
Separator	Tab
Decimal_Separator	.
Multi_Headings	No
X_Columns	One
Time_Pref	Absolute
Operator	admin
Description	Clolumns are: time, Current, Voltage, Power, Battery Temp, and Chamber Temp
Date	2024/08/16
Time	13:59:35.9411449432373046875
***End_of_Header***	
	
Channels	6						
Samples	1	1	1	1	1	1	
Date	2024/09/19	2024/09/19	2024/09/19	2024/09/19	2024/09/19	2024/09/19	
Time	05:24:59.5732097625732421875	05:24:59.5793423652648925781	05:24:59.5870151519775390625	05:24:59.5572080612182617188	05:24:59.5572080612182617188	05:24:59.5572080612182617188	
X_Dimension	Time	Time	Time	Time	Time	Time	
X0	0.0000000000000000E+0	0.0000000000000000E+0	0.0000000000000000E+0	0.0000000000000000E+0	0.0000000000000000E+0	0.0000000000000000E+0	
Delta_X	1.000000	1.000000	1.000000	1.000000	1.000000	1.000000	
***End_of_Header***							
X_Value	Untitled	Untitled 1	Untitled 2	Untitled 3	Untitled 4	Untitled 5	Comment
0.000000	3.400000E+38	4.097700	0.232900	20.726968	0.000383	20.618375
1.000972	-3.012000	3.935100	-11.852000	20.717668	0.000384	20.628518
1.999769	-3.027500	3.927800	-11.891000	20.712636	0.000381	20.608310
3.004611	-2.991000	3.924000	-11.736000	20.742066	0.000381	20.618300
4.000583	-3.018600	3.918400	-11.827000	20.740084	0.000380	20.606833
4.999723	-2.980300	3.916500	-11.671000	20.723644	0.000379	20.612680
6.002198	-2.986800	3.913000	-11.686000	20.724404	0.000379	20.610121
6.999806	-3.001000	3.910000	-11.733000	20.731973	0.000378	20.601567
7.999338	-2.977900	3.908100	-11.637000	20.735448	0.000377	20.603145
8.999305	-2.984300	3.905300	-11.653000	20.756694	0.000376	20.613012
9.998897	-3.011800	3.902000	-11.751000	20.734542	0.000377	20.612198
11.002654	-3.015900	3.901700	-11.765000	20.757933	0.000375	20.624683
12.001254	-3.005100	3.900400	-11.720000	20.758017	0.000375	20.625243
13.001235	-2.996300	3.899600	-11.684000	20.749592	0.000373	20.628672
14.003215	-3.011500	3.897000	-11.736000	20.759005	0.000372	20.636189
15.001308	-3.016400	3.896700	-11.753000	20.769769	0.000372	20.632253
16.001221	-3.014500	3.894200	-11.738000	20.776790	0.000373	20.634533
17.006145	-3.007600	3.894400	-11.711000	20.793969	0.000372	20.633220
18.002927	-3.006100	3.891900	-11.698000	20.777636	0.000372	20.621152
19.004373	-2.997200	3.892000	-11.664000	20.800448	0.000372	20.613143
20.001814	-2.980400	3.892000	-11.599000	20.780566	0.000371	20.611279
21.002432	-3.002100	3.889600	-11.676000	20.813014	0.000369	20.642308
22.007234	-3.009800	3.889200	-11.704000	20.800000	0.000369	20.618860
23.002627	-3.001000	3.888900	-11.669000	20.802052	0.000369	20.626603
24.003377	-2.987300	3.888700	-11.615000	20.814738	0.000369	20.622219
25.006694	-3.015800	3.886900	-11.722000	20.824232	0.000367	20.632663
26.004241	-3.004400	3.886900	-11.677000	20.816748	0.000368	20.629920
27.005682	-3.002500	3.884300	-11.662000	20.820697	0.000366	20.624859
28.008817	-3.002200	3.884400	-11.662000	20.868567	0.000365	20.637646
29.004580	-2.976300	3.883800	-11.558000	20.845215	0.000364	20.637526
30.005340	-3.004700	3.884400	-11.671000	20.843751	0.000365	20.610927
31.006062	-3.036200	3.882200	-11.786000	20.858732	0.000363	20.618324
32.007592	-3.000700	3.882500	-11.649000	20.869715	0.000363	20.635474
33.010466	-3.005500	3.883200	-11.670000	20.886766	0.000362	20.639251
34.006638	-2.997000	3.882100	-11.634000	20.864292	0.000361	20.631473
35.007608	-2.985500	3.880500	-11.585000	20.886208	0.000362	20.614982
36.009014	-3.003500	3.880800	-11.656000	20.893777	0.000361	20.651953
37.008389	-2.996200	3.880100	-11.625000	20.883078	0.000361	20.633190
38.014758	-2.978900	3.881100	-11.560000	20.903624	0.000361	20.641886
39.008366	-3.003600	3.880900	-11.655000	20.922988	0.000361	20.629482
40.014576	-2.999900	3.879400	-11.637000	20.933628	0.000360	20.664784
41.015888	-3.012500	3.878500	-11.682000	20.935532	0.000360	20.648194
42.009729	-3.013200	3.878600	-11.686000	20.942149	0.000360	20.631101
43.010837	-2.995700	3.878200	-11.617000	20.938169	0.000358	20.620482
44.012975	-2.990600	3.877800	-11.596000	20.940321	0.000359	20.637335
45.011241	-3.019100	3.876500	-11.702000	20.952280	0.000358	20.645977
46.012288	-3.017600	3.877400	-11.699000	20.972451	0.000359	20.655247
47.013423	-3.004800	3.877200	-11.649000	20.975925	0.000357	20.640228
48.014353	-3.005400	3.875800	-11.648000	20.972738	0.000356	20.643679
49.017288	-2.990800	3.876100	-11.592000	20.979606	0.000358	20.647229
50.013827	-2.984000	3.875500	-11.563000	20.989223	0.000354	20.641674
51.012998	-2.989000	3.875900	-11.584000	20.977305	0.000357	20.637340
52.013710	-3.006500	3.875500	-11.650000	21.002360	0.000356	20.660980
53.013837	-3.003000	3.874300	-11.634000	21.028623	0.000355	20.645046
54.016140	-2.985500	3.874600	-11.566000	21.011433	0.000355	20.652509
55.016093	-3.010700	3.873600	-11.662000	21.030828	0.000357	20.638241
56.014678	-2.998800	3.874800	-11.619000	21.033878	0.000355	20.662158
57.014932	-2.986800	3.872900	-11.566000	21.043293	0.000357	20.647391
58.015057	-2.988400	3.873800	-11.575000	21.042954	0.000355	20.650372
59.014307	-3.023100	3.872300	-11.705000	21.054484	0.000354	20.668070
60.017075	-2.991900	3.872700	-11.585000	21.065395	0.000356	20.651955
61.015509	-3.008500	3.871700	-11.648000	21.063556	0.000354	20.628776
62.018185	-3.009600	3.872800	-11.654000	21.075613	0.000356	20.654115
63.016204	-3.014200	3.870300	-11.665000	21.077114	0.000353	20.645184
64.016755	-3.022400	3.871600	-11.701000	21.111953	0.000353	20.688571
65.018408	-3.017000	3.869900	-11.674000	21.114879	0.000353	20.663047
66.016831	-3.009100	3.870600	-11.646000	21.114813	0.000352	20.661558
67.016809	-3.029300	3.870600	-11.724000	21.124524	0.000351	20.676489
68.024521	-3.002700	3.869800	-11.619000	21.134363	0.000351	20.675899
69.017733	-2.989100	3.870300	-11.568000	21.140208	0.000354	20.657087
70.018003	-2.986300	3.871700	-11.560000	21.135752	0.000353	20.658794
71.021338	-2.977800	3.870800	-11.525000	21.147709	0.000351	20.660798
72.017874	-2.969500	3.870600	-11.491000	21.144523	0.000353	20.688434
73.017763	-2.988100	3.870500	-11.565000	21.179706	0.000350	20.671944
74.018837	-2.990900	3.868800	-11.570000	21.177439	0.000353	20.685325
75.018416	-3.010000	3.868300	-11.641000	21.164979	0.000353	20.670489
76.020626	-3.005800	3.868100	-11.626000	21.181178	0.000352	20.669149
77.018305	-2.998100	3.868800	-11.597000	21.189792	0.000351	20.673025
78.020113	-3.003300	3.868800	-11.617000	21.184586	0.000351	20.683465
79.019762	-2.991300	3.867900	-11.569000	21.207845	0.000351	20.665953
80.019949	-3.008100	3.868700	-11.636000	21.195876	0.000350	20.658720
81.020925	-3.015200	3.867400	-11.659000	21.203996	0.000351	20.681070
82.019310	-3.023200	3.866400	-11.687000	21.232468	0.000351	20.674464
83.020407	-3.025500	3.868100	-11.702000	21.240909	0.000351	20.668683
84.021061	-2.996700	3.867200	-11.588000	21.258400	0.000352	20.683812
85.019444	-3.001200	3.867800	-11.607000	21.248307	0.000350	20.684621
86.019313	-2.986200	3.867800	-11.549000	21.248592	0.000352	20.686802
87.021015	-3.029000	3.865900	-11.708000	21.255512	0.000350	20.672387
88.019634	-3.028500	3.866600	-11.709000	21.273403	0.000352	20.673216
89.018770	-2.996100	3.866400	-11.583000	21.277080	0.000352	20.684482
90.019919	-2.991300	3.867500	-11.568000	21.261427	0.000352	20.690634
91.021904	-3.020800	3.865400	-11.675000	21.276227	0.000352	20.683155
92.023892	-3.004500	3.864800	-11.611000	21.287112	0.000351	20.679819
93.022933	-2.995600	3.865000	-11.578000	21.296101	0.000349	20.683122
94.021630	-2.977200	3.864800	-11.504000	21.318731	0.000352	20.681106
95.023409	-2.995400	3.865700	-11.579000	21.325053	0.000351	20.687906
96.022874	-2.986000	3.866200	-11.542000	21.322791	0.000351	20.694653
97.024382	-2.982400	3.865100	-11.526000	21.337645	0.000349	20.691969
98.025758	-2.990600	3.865600	-11.560000	21.343370	0.000351	20.680626
99.023898	-2.998900	3.864200	-11.587000	21.357868	0.000352	20.693710
100.027449	-2.992800	3.864700	-11.566000	21.348773	0.000351	20.690774
101.023654	-2.978300	3.864800	-11.510000	21.348407	0.000350	20.687563
102.024272	-3.016700	3.863200	-11.653000	21.367599	0.000352	20.685427
103.028699	-3.010800	3.863600	-11.632000	21.388238	0.000353	20.681420
104.023989	-3.021100	3.861900	-11.667000	21.382811	0.000352	20.674093
105.026655	-3.023800	3.863700	-11.682000	21.380302	0.000349	20.686757
106.024605	-3.018800	3.863100	-11.661000	21.375750	0.000352	20.692160
107.025274	-2.991100	3.863200	-11.554000	21.369218	0.000352	20.690366
108.025534	-2.995600	3.862300	-11.569000	21.422482	0.000351	20.705253
109.027591	-3.000500	3.863300	-11.591000	21.402562	0.000352	20.682950
110.026046	-3.013300	3.862000	-11.636000	21.417889	0.000351	20.692121
111.031166	-2.995400	3.862300	-11.569000	21.419398	0.000352	20.699796
112.026802	-3.006000	3.860500	-11.603000	21.432577	0.000352	20.698284
113.026593	-3.002700	3.861500	-11.594000	21.448126	0.000352	20.715265
114.028440	-2.961100	3.862700	-11.437000	21.441970	0.000352	20.690137
115.027122	-3.002700	3.859900	-11.590000	21.486923	0.000353	20.695762
116.026964	-3.013000	3.860300	-11.630000	21.458026	0.000353	20.719955
117.027676	-2.996100	3.861200	-11.568000	21.499765	0.000354	20.703871
118.028637	-2.990500	3.860800	-11.544000	21.491892	0.000352	20.699311
119.033915	-3.015400	3.858900	-11.634000	21.491930	0.000353	20.706462
120.030583	-3.012000	3.860500	-11.627000	21.496624	0.000353	20.701676
121.030933	-3.017100	3.860100	-11.646000	21.493316	0.000353	20.705004
122.030808	-3.003700	3.860400	-11.595000	21.489312	0.000354	20.712852
123.030409	-3.005200	3.859000	-11.597000	21.507254	0.000354	20.706623
124.032932	-2.997200	3.860600	-11.570000	21.528912	0.000353	20.730193
125.032586	-2.986400	3.859200	-11.525000	21.517875	0.000354	20.712983
126.032108	-2.991500	3.859800	-11.546000	21.517909	0.000354	20.703059
127.031764	-2.994100	3.859100	-11.553000	21.546324	0.000356	20.703992
128.031541	-2.966300	3.861200	-11.453000	21.549330	0.000354	20.716483
129.037066	-2.987800	3.859700	-11.530000	21.568016	0.000355	20.710526
130.032602	-3.006200	3.858700	-11.599000	21.567083	0.000355	20.715756
131.032620	-2.982200	3.859500	-11.508000	21.576944	0.000354	20.711873
132.036935	-3.001000	3.858700	-11.577000	21.583912	0.000356	20.717424
133.033527	-2.991400	3.858000	-11.540000	21.585516	0.000354	20.721400
134.032682	-3.004000	3.858300	-11.590000	21.574010	0.000354	20.699928
135.035003	-2.980900	3.858700	-11.501000	21.594394	0.000355	20.719853
136.032909	-3.020200	3.857200	-11.648000	21.598096	0.000357	20.715970
137.033538	-2.995700	3.858700	-11.559000	21.616811	0.000358	20.719526
138.033611	-2.995000	3.857900	-11.553000	21.615449	0.000357	20.722430
139.034843	-2.984500	3.858700	-11.516000	21.610296	0.000354	20.725808
140.036658	-3.008500	3.857900	-11.605000	21.608686	0.000356	20.720878
141.035267	-3.006100	3.857300	-11.594000	21.622663	0.000360	20.733918
142.034739	-3.008000	3.856600	-11.599000	21.658060	0.000358	20.711967
143.034583	-3.024100	3.855700	-11.659000	21.645179	0.000357	20.741751
144.034569	-2.990100	3.856400	-11.530000	21.681296	0.000356	20.724315
145.036494	-3.000800	3.857700	-11.574000	21.682727	0.000359	20.707728
146.035867	-3.026400	3.856400	-11.670000	21.660122	0.000358	20.724937
147.035355	-2.985200	3.857700	-11.515000	21.679430	0.000356	20.726715
148.036158	-3.004200	3.855600	-11.582000	21.689917	0.000357	20.722037
149.035502	-3.029300	3.853800	-11.673000	21.698731	0.000359	20.719953
150.037160	-3.036200	3.854500	-11.702000	21.686842	0.000359	20.741720
151.039318	-3.002100	3.853900	-11.568000	21.696007	0.000358	20.748522
152.038266	-2.991400	3.854100	-11.529000	21.732552	0.000359	20.730093
153.037556	-3.006900	3.853900	-11.587000	21.721610	0.000360	20.718668
154.037141	-3.009400	3.853900	-11.596000	21.729403	0.000361	20.717932
155.039174	-2.980500	3.855600	-11.490000	21.735873	0.000361	20.740056
156.043272	-2.984600	3.855300	-11.506000	21.729896	0.000361	20.720797
157.038757	-3.002300	3.853700	-11.569000	21.744746	0.000359	20.742772
158.038781	-3.014600	3.853400	-11.616000	21.758095	0.000360	20.731950
159.042308	-2.998400	3.854000	-11.554000	21.751867	0.000360	20.730933
160.039049	-3.013900	3.853100	-11.611000	21.781803	0.000359	20.734815
161.038764	-2.999800	3.853300	-11.558000	21.761738	0.000363	20.727535
162.041694	-3.005100	3.854100	-11.581000	21.777036	0.000363	20.727199
163.038120	-3.011100	3.853100	-11.601000	21.777169	0.000365	20.717849
164.039737	-2.992700	3.854100	-11.532000	21.791545	0.000361	20.734134
165.039181	-2.996900	3.853400	-11.546000	21.791678	0.000363	20.720516
166.040574	-2.985200	3.853000	-11.501000	21.803981	0.000363	20.703905
167.038667	-3.005800	3.852900	-11.579000	21.793095	0.000364	20.711977
168.038931	-2.999400	3.852300	-11.554000	21.817843	0.000365	20.729635
169.038533	-3.008600	3.852100	-11.588000	21.813743	0.000363	20.721738
170.038441	-2.985500	3.853400	-11.503000	21.824550	0.000364	20.723546
171.040206	-2.999700	3.852600	-11.556000	21.821743	0.000364	20.711726
172.039640	-3.011700	3.851800	-11.599000	21.862143	0.000364	20.728456
173.039413	-2.979000	3.853200	-11.478000	21.840510	0.000365	20.692576
174.039069	-3.000100	3.850900	-11.552000	21.850720	0.000363	20.710858
175.038912	-2.991200	3.851000	-11.518000	21.852181	0.000364	20.700466
176.047454	-3.001500	3.850300	-11.556000	21.862342	0.000363	20.685979
177.039590	-2.997400	3.852500	-11.546000	21.877057	0.000365	20.720150
178.040329	-3.017100	3.851100	-11.618000	21.872193	0.000366	20.692520
179.040193	-2.984000	3.851900	-11.493000	21.881529	0.000365	20.681475
180.040482	-2.988500	3.851200	-11.509000	21.885151	0.000366	20.696956
181.040382	-3.007800	3.849300	-11.576000	21.884792	0.000366	20.700390
182.043246	-2.999000	3.850700	-11.547000	21.894627	0.000368	20.699803
183.040705	-3.006800	3.849900	-11.576000	21.909831	0.000367	20.689416
184.041489	-3.013100	3.849900	-11.599000	21.913404	0.000367	20.698209
185.043017	-3.003400	3.849300	-11.561000	21.916306	0.000366	20.696372
186.041661	-2.996300	3.849900	-11.534000	21.913499	0.000366	20.705891
187.045834	-2.996700	3.848700	-11.532000	21.934727	0.000368	20.711967
188.043864	-3.007600	3.848100	-11.572000	21.925170	0.000369	20.701927
189.044245	-2.981600	3.850000	-11.477000	21.937116	0.000370	20.690650
190.043940	-2.993300	3.848000	-11.517000	21.954579	0.000368	20.684896
191.041886	-3.006300	3.847400	-11.566000	21.965213	0.000371	20.697439
192.043066	-3.000100	3.848500	-11.545000	21.962855	0.000369	20.703614
193.046371	-3.001500	3.848300	-11.549000	21.959728	0.000370	20.683886
194.044461	-2.983100	3.850100	-11.484000	21.967041	0.000371	20.677930
195.045434	-3.003300	3.848000	-11.556000	21.967974	0.000370	20.677916
196.044495	-3.016400	3.847400	-11.604000	21.979156	0.000371	20.666822
197.045182	-3.021100	3.847000	-11.621000	21.991778	0.000370	20.676139
198.049695	-3.002400	3.846800	-11.549000	21.987150	0.000373	20.678620
199.046287	-2.997600	3.847400	-11.532000	22.010740	0.000372	20.667620
200.046669	-3.005800	3.847100	-11.563000	22.012202	0.000372	20.670980
201.051961	-3.006000	3.846100	-11.560000	22.032180	0.000374	20.655890
202.048017	-3.017400	3.847000	-11.607000	22.013645	0.000374	20.683331
203.048996	-3.006100	3.845700	-11.560000	22.030129	0.000374	20.684186
204.051201	-3.008800	3.846300	-11.572000	22.020519	0.000373	20.648957
205.048865	-3.005300	3.846600	-11.559000	22.029776	0.000373	20.685255
206.048876	-3.009500	3.845300	-11.572000	22.053321	0.000373	20.682747
207.049535	-2.997300	3.844900	-11.524000	22.043632	0.000374	20.663088
208.048230	-2.997100	3.847200	-11.530000	22.041723	0.000374	20.654064
209.051553	-3.005900	3.845300	-11.558000	22.044902	0.000377	20.676689
210.049702	-3.028000	3.845700	-11.643000	22.061184	0.000374	20.665012
211.049065	-2.982900	3.845700	-11.471000	22.059497	0.000376	20.673756
212.048857	-3.014100	3.845300	-11.589000	22.077210	0.000376	20.679161
213.048306	-2.994700	3.844000	-11.511000	22.078188	0.000377	20.675872
214.053084	-3.011800	3.845400	-11.581000	22.091184	0.000379	20.661854
215.051474	-3.005800	3.844200	-11.554000	22.098699	0.000379	20.665585
216.050093	-3.009500	3.845400	-11.572000	22.100530	0.000378	20.667419
217.050620	-3.019200	3.844100	-11.605000	22.098420	0.000377	20.663409
218.051069	-3.013500	3.843500	-11.581000	22.107208	0.000379	20.650868
219.057112	-2.987200	3.843400	-11.479000	22.111051	0.000382	20.670366
220.053378	-2.996600	3.842300	-11.512000	22.107698	0.000379	20.667956
221.053117	-2.989700	3.842800	-11.488000	22.111394	0.000379	20.664544
222.052440	-2.979600	3.843300	-11.451000	22.134439	0.000379	20.653950
223.051883	-3.023100	3.842400	-11.615000	22.129088	0.000382	20.669456
224.052998	-2.979600	3.843300	-11.451000	22.152078	0.000380	20.664498
225.058666	-2.996900	3.841300	-11.511000	22.130033	0.000382	20.647166
226.054922	-2.997100	3.841800	-11.513000	22.142431	0.000382	20.679498
227.056132	-2.999700	3.841500	-11.523000	22.169309	0.000380	20.677957
228.058501	-2.988900	3.841800	-11.482000	22.156158	0.000382	20.677593
229.056140	-3.005900	3.841000	-11.546000	22.163377	0.000381	20.663482
230.058757	-3.004100	3.842000	-11.541000	22.178039	0.000382	20.667731
231.058750	-3.001400	3.841400	-11.529000	22.190887	0.000382	20.664472
232.057297	-2.989500	3.840300	-11.480000	22.182675	0.000384	20.641549
233.056661	-2.985100	3.840300	-11.462000	22.176425	0.000385	20.676073
234.057851	-3.005400	3.840000	-11.540000	22.186376	0.000385	20.652843
235.059344	-2.996900	3.840000	-11.507000	22.205681	0.000384	20.657947
236.059376	-3.006200	3.839500	-11.542000	22.206141	0.000385	20.636594
237.057961	-2.978900	3.840200	-11.439000	22.205975	0.000384	20.652077
238.059250	-3.003300	3.839600	-11.531000	22.201029	0.000385	20.652340
239.057728	-2.997300	3.841000	-11.511000	22.226637	0.000388	20.631037
240.057877	-3.000000	3.838900	-11.516000	22.232578	0.000386	20.655005
241.058960	-3.007400	3.838400	-11.542000	22.222239	0.000388	20.661250
242.056413	-3.004900	3.839200	-11.536000	22.237884	0.000388	20.650834
243.061175	-2.987300	3.838800	-11.467000	22.239710	0.000386	20.646498
244.060568	-3.005700	3.838500	-11.537000	22.268953	0.000389	20.657762
245.061142	-3.021600	3.838000	-11.595000	22.246683	0.000388	20.650636
246.062918	-3.017900	3.839300	-11.585000	22.252648	0.000388	20.642383
247.060351	-3.010100	3.839000	-11.555000	22.249271	0.000388	20.655598
248.061761	-3.004200	3.838200	-11.530000	22.253273	0.000390	20.627360
249.060542	-3.008400	3.837900	-11.545000	22.261010	0.000387	20.651230
250.060669	-3.004300	3.838000	-11.529000	22.287663	0.000390	20.630974
251.063853	-3.001200	3.836900	-11.514000	22.271543	0.000391	20.638068
252.063150	-2.999000	3.837800	-11.509000	22.296130	0.000391	20.656999
253.062315	-3.001300	3.837200	-11.515000	22.298884	0.000389	20.655015
254.062910	-2.996300	3.836500	-11.494000	22.299062	0.000392	20.658039
255.063038	-3.001100	3.835800	-11.511000	22.304105	0.000393	20.644594
256.064428	-3.022700	3.835200	-11.592000	22.311822	0.000392	20.636673
257.064447	-2.965600	3.837600	-11.380000	22.315112	0.000393	20.660359
258.064707	-2.991100	3.836900	-11.475000	22.322854	0.000395	20.642979
259.065918	-2.995100	3.835200	-11.486000	22.333997	0.000394	20.650345
260.065877	-3.009900	3.835700	-11.544000	22.347396	0.000394	20.645744
261.067873	-3.011300	3.835600	-11.549000	22.345612	0.000395	20.634947
262.069801	-3.004700	3.834800	-11.520000	22.341239	0.000393	20.640526
263.070630	-2.992600	3.835300	-11.476000	22.365616	0.000396	20.639805
264.070655	-2.988500	3.834400	-11.457000	22.356975	0.000395	20.635420
265.070256	-3.015300	3.834900	-11.563000	22.383128	0.000397	20.664458
266.069490	-3.004500	3.834700	-11.521000	22.387654	0.000395	20.642908
267.072042	-3.008800	3.834400	-11.536000	22.373504	0.000395	20.650077
268.070827	-3.013600	3.834700	-11.556000	22.356513	0.000397	20.642070
269.069822	-3.004600	3.834100	-11.519000	22.374850	0.000396	20.625817
270.071191	-2.993500	3.834600	-11.478000	22.398180	0.000399	20.628317
271.070552	-3.011200	3.833800	-11.543000	22.408633	0.000396	20.632622
272.072853	-3.012800	3.834700	-11.552000	22.403455	0.000399	20.626962
