LabVIEW Measurement	
Writer_Version	2
Reader_Version	2
Separator	Tab
Decimal_Separator	.
Multi_Headings	No
X_Columns	One
Time_Pref	Absolute
Operator	admin
Description	Clolumns are: time, Current, Voltage, Power, Battery Temp, and Chamber Temp
Date	2024/08/16
Time	13:06:06.104549407958984375
***End_of_Header***	
	
Channels	6						
Samples	1	1	1	1	1	1	
Date	2024/08/22	2024/08/22	2024/08/22	2024/08/22	2024/08/22	2024/08/22	
Time	22:23:20.1114048957824707031	22:23:20.1174054145812988281	22:23:20.1233673095703125	22:23:20.0800585746765136719	22:23:20.0800585746765136719	22:23:20.0800585746765136719	
X_Dimension	Time	Time	Time	Time	Time	Time	
X0	0.0000000000000000E+0	0.0000000000000000E+0	0.0000000000000000E+0	0.0000000000000000E+0	0.0000000000000000E+0	0.0000000000000000E+0	
Delta_X	1.000000	1.000000	1.000000	1.000000	1.000000	1.000000	
***End_of_Header***							
X_Value	Untitled	Untitled 1	Untitled 2	Untitled 3	Untitled 4	Untitled 5	Comment
0.000000	0.018588	4.105400	0.076231	21.078751	0.000982	20.825113
1.009561	-2.990600	3.951100	-11.815000	21.075383	0.000981	20.789028
2.004169	-3.011300	3.944500	-11.877000	21.098610	0.000980	20.790449
3.017230	-3.011600	3.938200	-11.859000	21.099234	0.000977	20.818100
4.014368	-3.004900	3.935900	-11.826000	21.089029	0.000979	20.786082
5.013766	-2.980500	3.934000	-11.724000	21.095066	0.000976	20.804449
6.002811	-3.004400	3.927900	-11.799000	21.098485	0.000976	20.796962
7.018901	-3.018500	3.926900	-11.851000	21.086409	0.000976	20.806220
8.013506	-3.000300	3.924500	-11.774000	21.090301	0.000975	20.794940
9.010012	-2.984700	3.922700	-11.708000	21.085860	0.000976	20.797136
10.013666	-3.011300	3.920300	-11.805000	21.104896	0.000973	20.793892
11.015574	-3.004600	3.919700	-11.775000	21.112330	0.000973	20.798958
12.016216	-3.024800	3.916400	-11.846000	21.082665	0.000973	20.805321
13.006486	-3.014100	3.915600	-11.801000	21.096162	0.000971	20.803174
14.010233	-2.994600	3.914400	-11.721000	21.097859	0.000971	20.809613
15.007577	-3.003100	3.914600	-11.756000	21.115522	0.000973	20.786978
16.010919	-2.993100	3.913100	-11.712000	21.104870	0.000971	20.798133
17.019613	-3.005800	3.911200	-11.755000	21.102225	0.000969	20.813505
18.007786	-3.004200	3.911500	-11.750000	21.117020	0.000967	20.786579
19.009814	-2.997100	3.909300	-11.716000	21.118939	0.000966	20.800827
20.012713	-2.985000	3.908200	-11.664000	21.125875	0.000968	20.800178
21.009714	-3.012300	3.907500	-11.770000	21.134133	0.000967	20.793266
22.012154	-3.003200	3.906600	-11.731000	21.132086	0.000965	20.799278
23.022552	-3.008700	3.906400	-11.752000	21.126374	0.000968	20.791668
24.014549	-2.974800	3.904600	-11.615000	21.151296	0.000965	20.810434
25.016682	-2.992900	3.905200	-11.687000	21.133084	0.000965	20.797906
26.012430	-2.986500	3.904800	-11.661000	21.170931	0.000965	20.794513
27.009702	-3.003800	3.902400	-11.721000	21.174024	0.000967	20.792391
28.011580	-2.998400	3.902300	-11.699000	21.162723	0.000965	20.778716
29.009184	-2.995800	3.901600	-11.688000	21.154264	0.000964	20.776419
30.017035	-2.988900	3.901400	-11.660000	21.179911	0.000962	20.803496
31.014762	-2.991600	3.899800	-11.666000	21.167761	0.000962	20.789445
32.013539	-2.989000	3.900900	-11.659000	21.161124	0.000960	20.785178
33.010620	-2.992800	3.900000	-11.672000	21.206827	0.000960	20.789170
34.015639	-3.016700	3.897700	-11.756000	21.190212	0.000959	20.787248
35.011861	-3.014600	3.897200	-11.748000	21.197397	0.000959	20.772624
36.009846	-2.989300	3.896900	-11.647000	21.198469	0.000959	20.773697
37.014226	-2.993200	3.898000	-11.667000	21.213613	0.000958	20.777940
38.009637	-3.007900	3.895800	-11.717000	21.218128	0.000959	20.769654
39.019037	-3.014900	3.894900	-11.742000	21.209296	0.000958	20.774096
40.009573	-3.002100	3.896500	-11.696000	21.206078	0.000958	20.786998
41.031444	-2.989400	3.894900	-11.642000	21.216930	0.000959	20.785526
42.018057	-3.020600	3.893500	-11.758000	21.220322	0.000958	20.778488
43.017645	-3.007800	3.894100	-11.711000	21.243447	0.000958	20.793561
44.014674	-2.988700	3.894700	-11.639000	21.226309	0.000956	20.783529
45.016784	-3.024400	3.893000	-11.773000	21.252702	0.000956	20.771051
46.016832	-3.010000	3.891700	-11.713000	21.251106	0.000956	20.788421
47.019451	-3.022800	3.892300	-11.765000	21.265549	0.000956	20.777265
48.020025	-3.019900	3.891700	-11.750000	21.264552	0.000955	20.771052
49.016004	-3.021000	3.891600	-11.756000	21.266323	0.000954	20.791316
50.017137	-2.996900	3.892100	-11.663000	21.276376	0.000954	20.791416
51.026790	-2.977100	3.893000	-11.589000	21.264752	0.000956	20.785951
52.019954	-3.003200	3.891200	-11.686000	21.280668	0.000956	20.784804
53.022608	-2.998500	3.890900	-11.666000	21.283835	0.000952	20.777541
54.013060	-2.989700	3.890700	-11.631000	21.273758	0.000955	20.776469
55.020801	-2.994500	3.890200	-11.648000	21.300524	0.000955	20.793288
56.014860	-2.975700	3.889200	-11.572000	21.298379	0.000954	20.764590
57.015034	-3.015800	3.888000	-11.723000	21.309130	0.000953	20.782458
58.016982	-3.000100	3.889700	-11.668000	21.320131	0.000952	20.772602
59.019803	-2.985900	3.889300	-11.613000	21.321703	0.000951	20.785080
60.012335	-3.003000	3.887700	-11.673000	21.311624	0.000953	20.770729
61.029076	-2.999000	3.888600	-11.661000	21.328812	0.000952	20.765639
62.014768	-3.011000	3.886700	-11.702000	21.355003	0.000951	20.781412
63.014465	-3.000700	3.886900	-11.663000	21.347146	0.000953	20.769757
64.022455	-2.994300	3.888300	-11.642000	21.343954	0.000952	20.763245
65.017388	-2.980400	3.888000	-11.586000	21.358022	0.000952	20.774474
66.025455	-2.995900	3.887000	-11.643000	21.353907	0.000951	20.799281
67.026484	-3.004400	3.885300	-11.672000	21.390823	0.000952	20.780265
68.022764	-3.014700	3.884500	-11.710000	21.389699	0.000952	20.777244
69.020960	-2.977200	3.885900	-11.567000	21.387556	0.000952	20.782686
70.024187	-2.977800	3.885500	-11.569000	21.396884	0.000950	20.776372
71.024637	-2.995000	3.885400	-11.635000	21.408857	0.000949	20.766540
72.019580	-3.009700	3.884800	-11.692000	21.412399	0.000950	20.779093
73.033324	-2.993600	3.885800	-11.632000	21.422102	0.000950	20.791172
74.023427	-3.003300	3.883200	-11.662000	21.414795	0.000951	20.792870
75.027343	-2.986000	3.885500	-11.601000	21.426367	0.000949	20.765093
76.031599	-2.991600	3.884100	-11.619000	21.428638	0.000950	20.790125
77.024386	-2.977200	3.884300	-11.563000	21.451608	0.000948	20.775650
78.041937	-3.011500	3.882800	-11.692000	21.455526	0.000947	20.780992
79.024677	-2.981800	3.883600	-11.580000	21.455276	0.000949	20.776000
80.026576	-3.000200	3.883800	-11.651000	21.448790	0.000948	20.782313
81.020692	-2.997100	3.882900	-11.637000	21.468744	0.000951	20.784261
82.028326	-3.013200	3.882700	-11.698000	21.462210	0.000947	20.796689
83.026952	-2.995700	3.880600	-11.624000	21.467723	0.000948	20.791774
84.039977	-2.998200	3.882400	-11.639000	21.477374	0.000948	20.789103
85.034264	-3.000500	3.881200	-11.644000	21.475304	0.000946	20.783712
86.031667	-3.002700	3.881300	-11.653000	21.499322	0.000949	20.779296
87.038581	-2.996600	3.882600	-11.634000	21.500519	0.000949	20.774329
88.026295	-3.024100	3.880200	-11.733000	21.491464	0.000951	20.773803
89.028009	-2.999900	3.882200	-11.645000	21.506529	0.000949	20.774653
90.045757	-3.011900	3.879100	-11.682000	21.501391	0.000949	20.794168
91.027771	-2.984600	3.881500	-11.582000	21.516206	0.000949	20.800932
92.028958	-3.005700	3.879600	-11.659000	21.528001	0.000949	20.777647
93.028329	-3.004900	3.880900	-11.660000	21.532416	0.000948	20.788703
94.037757	-3.038000	3.879200	-11.783000	21.531096	0.000949	20.790226
95.029828	-3.017900	3.877300	-11.700000	21.558554	0.000949	20.775028
96.033389	-3.019600	3.879200	-11.712000	21.559252	0.000949	20.774778
97.020901	-3.012500	3.878100	-11.682000	21.562270	0.000950	20.774005
98.035627	-3.010100	3.877700	-11.671000	21.579228	0.000949	20.782914
99.032367	-3.005000	3.878500	-11.653000	21.560174	0.000948	20.779969
100.019747	-2.993800	3.879200	-11.612000	21.590300	0.000946	20.784036
101.031568	-3.019500	3.877200	-11.705000	21.587184	0.000947	20.783763
102.036157	-2.990200	3.878100	-11.596000	21.616685	0.000950	20.782465
103.033216	-3.007900	3.877500	-11.662000	21.599552	0.000949	20.787131
104.029786	-2.998400	3.877400	-11.624000	21.603393	0.000948	20.783388
105.038507	-3.002800	3.876600	-11.638000	21.628080	0.000951	20.802877
106.025923	-2.987100	3.877800	-11.582000	21.637008	0.000948	20.796164
107.028718	-3.006200	3.878700	-11.659000	21.638878	0.000949	20.781440
108.024253	-2.986000	3.878900	-11.582000	21.631371	0.000949	20.782936
109.035193	-3.008000	3.876500	-11.660000	21.654763	0.000949	20.780742
110.034630	-3.005400	3.875900	-11.647000	21.642020	0.000949	20.787429
111.033029	-2.999700	3.875300	-11.624000	21.655885	0.000948	20.791347
112.034482	-2.978600	3.876100	-11.544000	21.677130	0.000951	20.780366
113.024768	-3.015500	3.875600	-11.685000	21.683041	0.000948	20.783911
114.046974	-3.006300	3.874900	-11.647000	21.665012	0.000949	20.789576
115.043947	-3.007000	3.875500	-11.653000	21.679500	0.000948	20.776099
116.034868	-2.988800	3.875500	-11.582000	21.652642	0.000949	20.799008
117.030485	-2.991400	3.875500	-11.592000	21.671894	0.000949	20.767065
118.031149	-3.009700	3.874200	-11.659000	21.685060	0.000949	20.799682
119.027472	-3.008400	3.874200	-11.654000	21.650946	0.000951	20.784508
120.035035	-2.994500	3.873500	-11.598000	21.702640	0.000951	20.785507
121.037922	-3.004900	3.873700	-11.639000	21.685110	0.000951	20.785982
122.043182	-3.005100	3.873600	-11.640000	21.705008	0.000951	20.796886
123.043447	-3.007600	3.872500	-11.646000	21.697529	0.000950	20.812634
124.044644	-2.985000	3.873700	-11.562000	21.704161	0.000950	20.805521
125.045554	-3.002200	3.873600	-11.628000	21.703239	0.000950	20.804124
126.043335	-2.979100	3.872700	-11.536000	21.716205	0.000952	20.812359
127.033209	-3.008400	3.873000	-11.650000	21.723736	0.000951	20.822267
128.045500	-2.992100	3.873000	-11.587000	21.747949	0.000950	20.798136
129.039013	-3.006700	3.871300	-11.639000	21.744657	0.000951	20.803850
130.037868	-2.981600	3.873200	-11.547000	21.761064	0.000952	20.810313
131.045035	-3.007200	3.872800	-11.645000	21.757774	0.000951	20.801805
132.037721	-3.018000	3.870800	-11.682000	21.767348	0.000952	20.789102
133.045478	-2.996800	3.871600	-11.602000	21.773008	0.000952	20.809939
134.039384	-2.997700	3.871000	-11.603000	21.785874	0.000952	20.793893
135.040017	-2.989600	3.870700	-11.571000	21.783182	0.000952	20.813009
136.043207	-3.013800	3.871900	-11.668000	21.774230	0.000953	20.799309
137.041956	-3.008700	3.869500	-11.641000	21.785400	0.000953	20.794367
138.042377	-3.009400	3.869900	-11.645000	21.796720	0.000954	20.811387
139.041442	-3.016600	3.868300	-11.668000	21.786349	0.000955	20.810964
140.045276	-2.997700	3.869900	-11.599000	21.807217	0.000953	20.814781
141.042763	-3.000400	3.870900	-11.614000	21.814050	0.000955	20.827309
142.046767	-3.017300	3.869900	-11.675000	21.827863	0.000955	20.814108
143.043625	-3.002500	3.869500	-11.616000	21.838135	0.000954	20.808742
144.034307	-2.995800	3.868700	-11.589000	21.849705	0.000954	20.807995
145.042216	-3.000600	3.870000	-11.612000	21.857010	0.000954	20.794444
146.052030	-2.991800	3.870000	-11.578000	21.872918	0.000956	20.815581
147.045212	-3.016700	3.867500	-11.666000	21.857659	0.000956	20.802205
148.048822	-3.014200	3.867200	-11.655000	21.867109	0.000956	20.809768
149.038867	-3.011600	3.869200	-11.650000	21.870375	0.000957	20.817304
150.047205	-2.985200	3.867800	-11.546000	21.881644	0.000955	20.800609
151.048541	-2.999700	3.866700	-11.599000	21.882817	0.000955	20.799411
152.046127	-2.988200	3.868300	-11.558000	21.874714	0.000955	20.820224
153.056907	-3.011100	3.867200	-11.644000	21.882618	0.000956	20.814385
154.048603	-3.003100	3.868200	-11.616000	21.896131	0.000955	20.818428
155.046715	-2.988800	3.868200	-11.560000	21.904459	0.000956	20.809695
156.044960	-3.025500	3.867500	-11.700000	21.915678	0.000956	20.831830
157.047711	-2.990500	3.868600	-11.568000	21.918371	0.000959	20.805128
158.046456	-2.989600	3.866500	-11.558000	21.922436	0.000957	20.818680
159.044829	-2.996800	3.868900	-11.593000	21.943853	0.000959	20.817359
160.049235	-3.012000	3.865300	-11.641000	21.957638	0.000958	20.806502
161.051968	-2.977100	3.867600	-11.512000	21.935875	0.000962	20.827865
162.046842	-3.001200	3.866900	-11.605000	21.972997	0.000958	20.804807
163.043049	-3.000100	3.866400	-11.597000	21.996256	0.000960	20.811021
164.058131	-2.984900	3.865000	-11.536000	21.987233	0.000957	20.825695
165.052967	-2.990100	3.864800	-11.555000	21.999200	0.000959	20.827717
166.045738	-3.005500	3.865300	-11.617000	22.000396	0.000961	20.818009
167.046046	-2.998500	3.863700	-11.584000	22.005582	0.000959	20.844063
168.050161	-3.002200	3.864800	-11.602000	22.007203	0.000961	20.833832
169.049089	-3.018600	3.864400	-11.664000	22.016626	0.000963	20.832834
170.048045	-2.995500	3.864900	-11.577000	22.006032	0.000960	20.824599
171.044134	-2.994700	3.864800	-11.572000	22.029341	0.000960	20.819010
172.046474	-3.011300	3.865100	-11.638000	22.038191	0.000963	20.830714
173.052554	-3.007800	3.863700	-11.620000	22.057312	0.000962	20.836579
174.055389	-3.011100	3.863600	-11.631000	22.055070	0.000962	20.843817
175.061145	-2.998600	3.864000	-11.585000	22.065415	0.000962	20.832363
176.054245	-3.009200	3.862900	-11.623000	22.073716	0.000964	20.843044
177.052688	-3.011300	3.863800	-11.633000	22.095104	0.000962	20.825576
178.050824	-3.028800	3.863000	-11.700000	22.085757	0.000963	20.807210
179.048904	-3.006000	3.863500	-11.612000	22.082441	0.000964	20.838977
180.047459	-3.002500	3.861900	-11.593000	22.093683	0.000964	20.840749
181.051730	-3.006400	3.862200	-11.610000	22.091765	0.000965	20.852578
182.049887	-2.990300	3.861700	-11.547000	22.106672	0.000964	20.842846
183.057098	-3.003900	3.861900	-11.600000	22.133843	0.000963	20.827849
184.049744	-3.007400	3.863400	-11.616000	22.106300	0.000965	20.823508
185.056029	-3.005900	3.862700	-11.608000	22.128284	0.000965	20.849310
186.055781	-3.007600	3.861900	-11.614000	22.132898	0.000965	20.860093
187.057594	-3.004700	3.860600	-11.599000	22.116744	0.000966	20.835861
188.056535	-3.001100	3.861100	-11.587000	22.126840	0.000966	20.846916
189.053999	-3.010200	3.861400	-11.622000	22.133371	0.000967	20.846817
190.054726	-2.992300	3.860900	-11.552000	22.134592	0.000965	20.851832
191.051316	-2.990300	3.861900	-11.548000	22.156229	0.000966	20.825606
192.058658	-2.990800	3.861300	-11.547000	22.169938	0.000970	20.855451
193.058707	-2.991800	3.860400	-11.548000	22.153512	0.000969	20.861765
194.058070	-3.009400	3.860600	-11.617000	22.178489	0.000968	20.847417
195.057052	-3.003500	3.860000	-11.593000	22.175099	0.000969	20.844023
196.058614	-2.996500	3.860100	-11.565000	22.180509	0.000971	20.832371
197.061884	-2.989300	3.858700	-11.534000	22.184023	0.000968	20.852958
198.060778	-2.998900	3.860800	-11.577000	22.185544	0.000971	20.856377
199.070209	-3.015100	3.858400	-11.632000	22.197210	0.000972	20.842453
200.060705	-2.987400	3.859300	-11.528000	22.203516	0.000971	20.863939
201.056784	-3.000500	3.859800	-11.579000	22.217648	0.000969	20.845373
202.064466	-3.028900	3.857800	-11.683000	22.219220	0.000971	20.852637
203.064078	-3.001300	3.858700	-11.580000	22.216280	0.000972	20.856331
204.073989	-2.992300	3.858900	-11.545000	22.238462	0.000971	20.851040
205.059479	-2.996900	3.857400	-11.559000	22.245292	0.000972	20.831327
206.064093	-2.995900	3.858100	-11.558000	22.272336	0.000972	20.865041
207.073998	-3.010400	3.857800	-11.612000	22.250079	0.000973	20.844654
208.064678	-3.014700	3.857900	-11.629000	22.269943	0.000974	20.862172
209.066064	-2.996800	3.856600	-11.556000	22.276449	0.000976	20.868686
210.064526	-3.019600	3.856900	-11.646000	22.256759	0.000976	20.867462
211.056455	-3.028000	3.856600	-11.676000	22.290332	0.000975	20.853189
212.061824	-2.958900	3.858800	-11.417000	22.291727	0.000975	20.859802
213.069263	-3.005100	3.855600	-11.586000	22.305161	0.000977	20.886528
214.063583	-2.993800	3.856600	-11.544000	22.298831	0.000977	20.872131
215.070353	-3.000900	3.856200	-11.572000	22.308302	0.000976	20.876872
216.065640	-2.994100	3.856000	-11.545000	22.313087	0.000975	20.875026
217.074533	-2.979700	3.855100	-11.486000	22.335766	0.000974	20.864545
218.063787	-2.984600	3.855900	-11.508000	22.329037	0.000977	20.871082
219.072487	-3.000800	3.854400	-11.565000	22.335368	0.000978	20.880740
220.063570	-2.995400	3.854500	-11.545000	22.333772	0.000978	20.869660
221.064774	-3.006600	3.855000	-11.590000	22.350943	0.000977	20.878318
222.059130	-3.007100	3.854900	-11.591000	22.351915	0.000980	20.880240
223.068793	-2.959900	3.856400	-11.413000	22.350894	0.000979	20.883485
224.069397	-3.012800	3.853900	-11.610000	22.351018	0.000978	20.898306
225.071832	-2.994200	3.855000	-11.541000	22.362306	0.000981	20.895385
226.088995	-3.012300	3.853900	-11.609000	22.383115	0.000981	20.872128
227.068598	-3.019100	3.852500	-11.631000	22.371202	0.000981	20.907612
228.088112	-3.027800	3.853000	-11.665000	22.390566	0.000981	20.889546
229.067512	-3.005300	3.853600	-11.580000	22.370355	0.000982	20.890170
230.066998	-3.001900	3.852300	-11.562000	22.384410	0.000981	20.890968
231.069373	-2.998900	3.854200	-11.557000	22.376511	0.000983	20.875472
232.085509	-3.009700	3.851100	-11.590000	22.400433	0.000984	20.904641
233.094237	-2.998400	3.852800	-11.552000	22.396571	0.000985	20.879439
234.085315	-2.977300	3.854000	-11.474000	22.412942	0.000985	20.907210
235.070910	-2.999000	3.851600	-11.550000	22.424182	0.000985	20.881958
236.070037	-2.980900	3.853700	-11.486000	22.415211	0.000986	20.889569
237.073970	-2.997100	3.852600	-11.546000	22.415683	0.000987	20.889568
238.069641	-2.991600	3.851300	-11.520000	22.402252	0.000985	20.883705
239.070440	-2.992500	3.851700	-11.525000	22.419471	0.000986	20.887198
240.070711	-3.008200	3.850300	-11.580000	22.439581	0.000988	20.896430
241.072614	-3.006300	3.849500	-11.572000	22.456552	0.000988	20.899201
242.072950	-3.002600	3.849500	-11.558000	22.464823	0.000989	20.892786
243.073312	-2.996000	3.850500	-11.534000	22.440503	0.000990	20.885500
244.069993	-2.998400	3.848900	-11.539000	22.480173	0.000990	20.920483
245.095920	-2.983400	3.849400	-11.483000	22.470380	0.000989	20.904987
246.093514	-3.021300	3.849700	-11.629000	22.493356	0.000989	20.913298
247.085088	-3.008100	3.849600	-11.578000	22.481070	0.000991	20.903839
248.075284	-2.985200	3.850800	-11.494000	22.494450	0.000990	20.876938
249.087032	-2.986200	3.849600	-11.494000	22.523280	0.000991	20.900594
250.104451	-3.010400	3.849500	-11.588000	22.525299	0.000992	20.897875
251.095309	-3.013300	3.849200	-11.598000	22.520615	0.000990	20.900295
252.093709	-3.003400	3.848000	-11.555000	22.506908	0.000993	20.881829
253.094424	-3.002400	3.848800	-11.553000	22.514310	0.000994	20.897775
254.103792	-3.007100	3.848800	-11.573000	22.522906	0.000993	20.905908
255.092554	-3.000900	3.848500	-11.548000	22.540696	0.000994	20.906182
256.102168	-3.000800	3.848000	-11.546000	22.515304	0.000993	20.909675
257.084905	-2.978700	3.848800	-11.463000	22.524998	0.000995	20.911796
258.080635	-2.999200	3.849300	-11.544000	22.524698	0.000994	20.915289
259.079285	-2.985000	3.849500	-11.488000	22.527089	0.000996	20.912468
260.079029	-3.004300	3.847600	-11.558000	22.534738	0.000996	20.899741
261.078041	-3.016300	3.846500	-11.601000	22.545253	0.000998	20.885618
262.084008	-3.007400	3.846100	-11.565000	22.543682	0.000997	20.910120
263.080731	-3.002300	3.845900	-11.546000	22.561349	0.000997	20.901262
264.075302	-3.002300	3.847000	-11.548000	22.555593	0.000999	20.910195
265.080658	-3.011700	3.847200	-11.585000	22.578864	0.000998	20.924967
266.083417	-2.990500	3.845600	-11.499000	22.610484	0.000999	20.925816
267.090915	-2.997800	3.846900	-11.531000	22.603058	0.001001	20.908423
268.082676	-2.996900	3.845600	-11.523000	22.616338	0.001002	20.904181
269.089118	-2.985500	3.845700	-11.481000	22.611431	0.001000	20.915386
270.079825	-2.979900	3.844800	-11.456000	22.610059	0.001003	20.912590
271.106591	-2.999100	3.845500	-11.531000	22.614270	0.001000	20.902584
272.113906	-3.024500	3.845100	-11.627000	22.602585	0.001002	20.931180
