LabVIEW Measurement	
Writer_Version	2
Reader_Version	2
Separator	Tab
Decimal_Separator	.
Multi_Headings	No
X_Columns	One
Time_Pref	Absolute
Operator	admin
Description	Clolumns are: time, Current, Voltage, Power, Battery Temp, and Chamber Temp
Date	2024/08/16
Time	13:06:06.104549407958984375
***End_of_Header***	
	
Channels	6						
Samples	1	1	1	1	1	1	
Date	2024/09/08	2024/09/08	2024/09/08	2024/09/08	2024/09/08	2024/09/08	
Time	05:10:27.9363245964050292969	05:10:27.9405121803283691407	05:10:27.9450845718383789063	05:10:27.9208350181579589844	05:10:27.9208350181579589844	05:10:27.9208350181579589844	
X_Dimension	Time	Time	Time	Time	Time	Time	
X0	0.0000000000000000E+0	0.0000000000000000E+0	0.0000000000000000E+0	0.0000000000000000E+0	0.0000000000000000E+0	0.0000000000000000E+0	
Delta_X	1.000000	1.000000	1.000000	1.000000	1.000000	1.000000	
***End_of_Header***							
X_Value	Untitled	Untitled 1	Untitled 2	Untitled 3	Untitled 4	Untitled 5	Comment
0.000000	0.016786	4.095100	0.068761	20.957596	0.000917	20.786438
0.999677	-2.988600	3.923600	-11.726000	20.966678	0.000917	20.793624
2.001822	-2.983300	3.916500	-11.683000	20.970820	0.000916	20.789232
2.998594	-2.977200	3.910000	-11.639000	20.951781	0.000916	20.791527
3.999544	-3.011900	3.906800	-11.767000	20.983894	0.000913	20.796144
4.999548	-3.015400	3.903700	-11.771000	20.972191	0.000912	20.779223
5.998332	-2.988500	3.900900	-11.657000	20.987635	0.000911	20.787084
7.001659	-2.990900	3.899400	-11.662000	20.980723	0.000910	20.786809
8.000166	-2.983300	3.897400	-11.626000	20.985040	0.000910	20.775953
9.002065	-2.996400	3.894600	-11.669000	20.978652	0.000910	20.783789
10.001064	-3.010100	3.892600	-11.715000	20.982618	0.000910	20.789652
11.000389	-2.976100	3.892700	-11.583000	20.964478	0.000909	20.814658
12.003281	-2.976700	3.892100	-11.584000	20.990752	0.000909	20.793046
13.001872	-2.998300	3.889400	-11.661000	21.002104	0.000908	20.794443
14.002080	-3.001400	3.885900	-11.662000	21.014131	0.000906	20.791773
15.001528	-3.015300	3.885900	-11.716000	21.001904	0.000906	20.798511
16.003458	-3.025300	3.884400	-11.750000	21.034016	0.000905	20.818300
17.003357	-3.015600	3.883100	-11.709000	21.035961	0.000904	20.801280
18.002329	-3.014000	3.881400	-11.698000	21.026779	0.000903	20.793992
19.003500	-2.979300	3.881100	-11.562000	21.040502	0.000902	20.802976
20.001998	-3.001700	3.881200	-11.650000	21.041499	0.000904	20.796388
21.002696	-3.000200	3.881000	-11.642000	21.033017	0.000904	20.794541
22.005694	-3.014800	3.878400	-11.692000	21.049683	0.000902	20.798409
23.002695	-3.022500	3.877500	-11.720000	21.063330	0.000900	20.810162
24.001906	-3.003400	3.877100	-11.643000	21.058789	0.000902	20.812733
25.003274	-3.021900	3.875500	-11.710000	21.079548	0.000900	20.809788
26.004821	-3.003500	3.875600	-11.639000	21.088055	0.000900	20.810237
27.004436	-2.991300	3.875700	-11.592000	21.087955	0.000902	20.803025
28.007390	-2.999100	3.873800	-11.618000	21.099631	0.000900	20.805221
29.005211	-2.986200	3.872900	-11.563000	21.114400	0.000897	20.799132
30.004973	-2.993400	3.874400	-11.596000	21.099531	0.000898	20.815552
31.004050	-2.994900	3.871300	-11.593000	21.099431	0.000898	20.820194
32.005511	-3.012700	3.871800	-11.664000	21.120089	0.000896	20.815253
33.007752	-3.000400	3.871600	-11.613000	21.110957	0.000896	20.814654
34.005096	-3.008100	3.871800	-11.646000	21.134933	0.000896	20.823463
35.006691	-3.013400	3.869500	-11.659000	21.146733	0.000897	20.823412
36.005760	-3.000400	3.868200	-11.605000	21.150675	0.000897	20.813606
37.007262	-2.998100	3.869700	-11.601000	21.128695	0.000895	20.814379
38.010344	-2.977900	3.869800	-11.522000	21.158782	0.000895	20.804172
39.007934	-3.004100	3.869400	-11.623000	21.172604	0.000897	20.808515
40.010415	-3.016900	3.866800	-11.664000	21.159307	0.000896	20.820343
41.009985	-3.009000	3.865900	-11.631000	21.169460	0.000894	20.811060
42.010585	-2.987600	3.867400	-11.554000	21.172703	0.000894	20.815726
43.011178	-2.995500	3.866100	-11.579000	21.181385	0.000893	20.807342
44.015840	-3.002300	3.867900	-11.612000	21.212369	0.000893	20.817948
45.015611	-2.977700	3.866500	-11.512000	21.210798	0.000892	20.820643
46.016569	-3.007100	3.864600	-11.621000	21.203937	0.000893	20.808564
47.018193	-2.986600	3.865700	-11.544000	21.206706	0.000893	20.817024
48.015151	-3.004500	3.865000	-11.610000	21.224967	0.000892	20.808265
49.017848	-2.995900	3.864000	-11.575000	21.239286	0.000893	20.823538
50.013446	-3.006700	3.864100	-11.617000	21.235196	0.000891	20.816126
51.015987	-2.999700	3.862700	-11.586000	21.259892	0.000895	20.816177
52.014101	-2.987500	3.864700	-11.545000	21.241832	0.000893	20.811385
53.015931	-3.000400	3.861300	-11.583000	21.245698	0.000893	20.839434
54.018122	-2.997900	3.862200	-11.578000	21.262960	0.000895	20.807866
55.016753	-2.997900	3.861600	-11.576000	21.267500	0.000890	20.812882
56.016269	-2.983500	3.861200	-11.519000	21.287357	0.000891	20.820893
57.017686	-3.006000	3.860200	-11.602000	21.286134	0.000891	20.807342
58.017385	-3.016500	3.859600	-11.640000	21.301975	0.000891	20.839784
59.019094	-3.005600	3.860000	-11.600000	21.301600	0.000891	20.843676
60.019403	-3.008400	3.860400	-11.611000	21.321232	0.000892	20.824911
61.018266	-2.984500	3.861600	-11.523000	21.338567	0.000890	20.813331
62.024866	-3.004900	3.860000	-11.598000	21.349319	0.000889	20.824562
63.023605	-3.029600	3.857300	-11.684000	21.345377	0.000892	20.811610
64.022833	-2.986700	3.860600	-11.530000	21.345352	0.000888	20.827232
65.026438	-3.024400	3.857400	-11.666000	21.354906	0.000890	20.822091
66.024534	-3.010300	3.859100	-11.615000	21.343582	0.000890	20.835417
67.023006	-3.020700	3.856600	-11.649000	21.365806	0.000891	20.818298
68.026853	-3.009100	3.856600	-11.603000	21.376358	0.000890	20.824587
69.022779	-3.000700	3.857600	-11.575000	21.384888	0.000889	20.842604
70.022814	-3.001400	3.857400	-11.577000	21.398307	0.000889	20.831849
71.027603	-2.990700	3.857400	-11.535000	21.391024	0.000891	20.831674
72.022645	-2.997300	3.855900	-11.557000	21.404967	0.000892	20.838986
73.023346	-2.997400	3.856700	-11.559000	21.402822	0.000889	20.839685
74.022311	-2.993400	3.855700	-11.541000	21.416665	0.000890	20.825561
75.024575	-3.023100	3.855400	-11.654000	21.433577	0.000888	20.838214
76.028167	-2.999800	3.854400	-11.561000	21.435996	0.000889	20.870504
77.024940	-3.006400	3.855500	-11.590000	21.471413	0.000891	20.847147
78.025703	-3.012000	3.854200	-11.607000	21.457296	0.000892	20.829705
79.025140	-3.001700	3.855300	-11.571000	21.455276	0.000890	20.825787
80.026359	-2.996400	3.855000	-11.550000	21.470691	0.000889	20.845477
81.029370	-3.002200	3.855100	-11.572000	21.486877	0.000891	20.829905
82.026654	-3.000700	3.854100	-11.564000	21.477301	0.000891	20.853987
83.026684	-2.979600	3.854800	-11.485000	21.498475	0.000891	20.829182
84.027584	-3.007000	3.854500	-11.590000	21.506954	0.000892	20.842882
85.029685	-3.016200	3.851600	-11.615000	21.520846	0.000892	20.840187
86.029943	-3.011300	3.852800	-11.601000	21.512891	0.000892	20.831753
87.032104	-2.990300	3.853700	-11.523000	21.520422	0.000889	20.850194
88.034083	-3.005900	3.852100	-11.578000	21.541871	0.000891	20.830405
89.031699	-3.009700	3.852900	-11.595000	21.532569	0.000894	20.840537
90.032786	-3.021600	3.851100	-11.635000	21.541523	0.000892	20.853764
91.034422	-3.021900	3.849400	-11.631000	21.540325	0.000890	20.850195
92.038952	-2.978600	3.852600	-11.473000	21.558955	0.000892	20.856982
93.039336	-3.000800	3.851700	-11.557000	21.595041	0.000891	20.843782
94.035095	-3.009200	3.850100	-11.584000	21.594069	0.000893	20.866515
95.034081	-2.989600	3.851400	-11.513000	21.591725	0.000893	20.841412
96.036849	-3.014700	3.851200	-11.609000	21.604818	0.000894	20.845979
97.036125	-2.993600	3.851200	-11.527000	21.633347	0.000895	20.851294
98.035179	-2.997300	3.851400	-11.543000	21.604843	0.000893	20.851694
99.036319	-3.003500	3.848800	-11.558000	21.622898	0.000891	20.822347
100.034772	-3.013300	3.849500	-11.598000	21.629482	0.000895	20.846952
101.035024	-2.988700	3.850400	-11.507000	21.639382	0.000893	20.841687
102.038492	-2.997900	3.848400	-11.536000	21.669482	0.000893	20.867066
103.037311	-2.997400	3.849800	-11.538000	21.656365	0.000894	20.845880
104.040405	-3.020100	3.847400	-11.618000	21.660929	0.000894	20.852344
105.038314	-2.995700	3.848100	-11.526000	21.680553	0.000893	20.875301
106.038890	-3.001000	3.847300	-11.545000	21.680604	0.000892	20.846904
107.042755	-2.982400	3.848000	-11.476000	21.679531	0.000894	20.844408
108.038242	-2.994400	3.847000	-11.517000	21.693346	0.000895	20.851121
109.039969	-3.001900	3.847700	-11.550000	21.689755	0.000896	20.855114
110.041288	-2.994800	3.846500	-11.519000	21.690304	0.000896	20.839542
111.037838	-2.977800	3.848400	-11.457000	21.718083	0.000894	20.831307
112.039486	-3.013800	3.845400	-11.588000	21.699780	0.000896	20.866094
113.041504	-2.999800	3.846000	-11.537000	21.708083	0.000896	20.839318
114.042216	-3.009400	3.846900	-11.576000	21.724665	0.000895	20.832679
115.040144	-2.989800	3.846400	-11.499000	21.729627	0.000896	20.831482
116.039734	-2.970300	3.847600	-11.428000	21.743367	0.000895	20.855188
117.040688	-2.989600	3.845600	-11.496000	21.742768	0.000895	20.825667
118.049044	-2.996600	3.845000	-11.521000	21.759724	0.000895	20.848326
119.042629	-3.005400	3.847000	-11.560000	21.776032	0.000896	20.836199
120.042568	-2.993300	3.846300	-11.512000	21.775009	0.000896	20.835176
121.043731	-2.997200	3.846300	-11.527000	21.780619	0.000897	20.834152
122.044970	-3.015900	3.842800	-11.588000	21.783886	0.000896	20.838370
123.043356	-3.011700	3.844800	-11.578000	21.783836	0.000898	20.844484
124.042291	-3.002100	3.844000	-11.539000	21.796504	0.000896	20.823498
125.043530	-3.003800	3.844900	-11.548000	21.814405	0.000898	20.833829
126.042322	-2.976100	3.844900	-11.441000	21.830487	0.000897	20.831433
127.042664	-2.997700	3.842600	-11.518000	21.833554	0.000898	20.823597
128.045163	-2.985500	3.844900	-11.478000	21.824728	0.000895	20.844634
129.045746	-3.007300	3.844700	-11.561000	21.821013	0.000899	20.837123
130.043409	-2.999200	3.843400	-11.527000	21.838790	0.000898	20.824571
131.045405	-3.010900	3.842300	-11.568000	21.836571	0.000899	20.837048
132.043911	-3.005400	3.842700	-11.548000	21.827571	0.000899	20.816660
133.044882	-2.997700	3.842300	-11.517000	21.842307	0.000898	20.822875
134.047001	-3.025800	3.840300	-11.619000	21.883420	0.000900	20.810447
135.043440	-2.968900	3.842300	-11.406000	21.872400	0.000898	20.813641
136.046720	-2.995800	3.841800	-11.509000	21.885216	0.000900	20.825046
137.045682	-3.016200	3.840300	-11.582000	21.911643	0.000899	20.842015
138.046264	-2.987800	3.842400	-11.479000	21.887984	0.000902	20.824024
139.045037	-2.996300	3.840700	-11.507000	21.899004	0.000902	20.832209
140.049494	-3.003900	3.840500	-11.535000	21.894541	0.000902	20.804983
141.046272	-3.005400	3.842200	-11.546000	21.885491	0.000901	20.796398
142.047248	-2.999100	3.841100	-11.519000	21.897235	0.000903	20.815265
143.053256	-2.996900	3.840400	-11.509000	21.922964	0.000904	20.804510
144.047330	-3.008100	3.838300	-11.544000	21.916931	0.000902	20.810799
145.051436	-3.000200	3.839600	-11.519000	21.944530	0.000904	20.820882
146.048373	-2.975800	3.841000	-11.429000	21.943010	0.000905	20.809402
147.048373	-3.015800	3.837600	-11.573000	21.943832	0.000904	20.803588
148.049065	-2.992300	3.839800	-11.489000	21.966720	0.000906	20.809429
149.047981	-2.987000	3.841100	-11.472000	21.979957	0.000905	20.789489
150.050301	-3.019000	3.838700	-11.588000	21.981827	0.000906	20.827396
151.048273	-3.008100	3.839400	-11.548000	21.992722	0.000907	20.816492
152.050304	-3.001000	3.838900	-11.520000	21.992572	0.000905	20.796427
153.048687	-3.002300	3.838400	-11.523000	21.999653	0.000907	20.812998
154.050711	-2.976800	3.837700	-11.423000	22.017751	0.000908	20.816417
155.055677	-2.979300	3.838900	-11.437000	21.999279	0.000908	20.795081
156.050733	-2.999500	3.836200	-11.505000	22.017478	0.000906	20.804290
157.054313	-2.978600	3.838400	-11.432000	22.013664	0.000909	20.794782
158.052502	-3.014900	3.836600	-11.566000	22.037247	0.000910	20.791364
159.052613	-2.995900	3.838100	-11.497000	22.030591	0.000910	20.801770
160.053263	-2.996100	3.835800	-11.492000	22.047768	0.000910	20.791938
161.055970	-3.008800	3.834600	-11.536000	22.059459	0.000911	20.791314
162.052168	-2.989500	3.835300	-11.464000	22.070304	0.000913	20.801222
163.054554	-2.986500	3.836600	-11.457000	22.048667	0.000913	20.797106
164.056112	-2.987800	3.834700	-11.456000	22.059261	0.000912	20.799651
165.058300	-2.990800	3.836200	-11.472000	22.057143	0.000913	20.794685
166.060375	-2.997700	3.834800	-11.495000	22.066517	0.000911	20.791741
167.053874	-3.004300	3.834200	-11.518000	22.082395	0.000912	20.769705
168.060976	-3.001400	3.834900	-11.510000	22.063401	0.000915	20.794786
169.056601	-3.008600	3.832900	-11.530000	22.070181	0.000917	20.782608
170.056248	-3.002300	3.835000	-11.513000	22.067615	0.000914	20.794263
171.055900	-2.997500	3.834300	-11.492000	22.096032	0.000916	20.789996
172.056702	-3.005800	3.832900	-11.519000	22.086186	0.000918	20.785354
173.062880	-3.007800	3.833100	-11.528000	22.110216	0.000914	20.796609
174.054615	-3.000300	3.832900	-11.499000	22.094811	0.000916	20.786402
175.056791	-3.005900	3.833600	-11.521000	22.093690	0.000916	20.772003
176.057064	-2.978000	3.832700	-11.413000	22.119016	0.000917	20.781711
177.056741	-2.984000	3.834100	-11.440000	22.130956	0.000919	20.796036
178.056920	-2.984000	3.832800	-11.436000	22.133424	0.000915	20.784756
179.056718	-3.013000	3.832100	-11.544000	22.145439	0.000918	20.778767
180.058979	-2.997400	3.831900	-11.485000	22.145464	0.000918	20.806294
181.058471	-3.010600	3.831700	-11.534000	22.150275	0.000918	20.782187
182.060917	-3.017800	3.831000	-11.560000	22.172657	0.000919	20.761922
183.058857	-3.016900	3.831800	-11.560000	22.174179	0.000918	20.762497
184.061108	-2.983600	3.831600	-11.431000	22.177245	0.000919	20.800180
185.056766	-3.001200	3.831200	-11.497000	22.181109	0.000919	20.772280
186.058027	-3.022300	3.830300	-11.575000	22.192401	0.000921	20.774577
187.065314	-3.008100	3.830700	-11.522000	22.191852	0.000922	20.786830
188.062378	-2.989500	3.830600	-11.450000	22.215008	0.000922	20.781091
189.059796	-2.994300	3.829800	-11.467000	22.218149	0.000922	20.764320
190.060018	-2.990100	3.829800	-11.450000	22.210771	0.000922	20.783961
191.060213	-2.978800	3.830900	-11.411000	22.245467	0.000924	20.790251
192.059593	-2.995100	3.830900	-11.473000	22.221988	0.000923	20.781915
193.060634	-2.991500	3.829500	-11.455000	22.241354	0.000924	20.796090
194.059309	-2.995800	3.828300	-11.467000	22.238663	0.000925	20.755462
195.062652	-2.992200	3.828600	-11.454000	22.237815	0.000923	20.776425
196.062240	-2.988500	3.830300	-11.446000	22.250777	0.000924	20.774230
197.063306	-2.996100	3.828800	-11.470000	22.242726	0.000924	20.797938
198.071846	-2.970800	3.827900	-11.369000	22.228220	0.000924	20.774405
199.062169	-2.994900	3.827800	-11.461000	22.234427	0.000924	20.753118
200.062063	-2.999800	3.827100	-11.479000	22.247587	0.000927	20.767717
201.065722	-2.985800	3.828000	-11.429000	22.260123	0.000927	20.789753
202.061644	-2.993400	3.827800	-11.457000	22.263613	0.000927	20.757685
203.061310	-3.004100	3.826000	-11.492000	22.271165	0.000926	20.755289
204.065926	-3.002300	3.827200	-11.489000	22.256859	0.000928	20.758983
205.063225	-3.004700	3.826800	-11.497000	22.253344	0.000928	20.765421
206.062740	-3.004800	3.826700	-11.497000	22.277571	0.000928	20.751272
207.061305	-2.975500	3.828400	-11.391000	22.274081	0.000929	20.780969
208.070549	-2.985400	3.824500	-11.417000	22.295765	0.000930	20.780870
209.068106	-2.974400	3.826200	-11.379000	22.316401	0.000929	20.745582
210.064201	-2.998100	3.825500	-11.468000	22.324076	0.000929	20.770812
211.064774	-3.015100	3.823900	-11.528000	22.340102	0.000930	20.777851
212.064236	-3.013600	3.825300	-11.525000	22.336862	0.000933	20.771761
213.063841	-3.005100	3.823800	-11.489000	22.352239	0.000931	20.744484
214.067865	-2.999000	3.824200	-11.467000	22.360140	0.000934	20.768518
215.063456	-3.000400	3.824200	-11.472000	22.368040	0.000932	20.758411
216.077158	-2.987600	3.825300	-11.428000	22.381772	0.000935	20.770739
217.072541	-2.993200	3.824100	-11.445000	22.397596	0.000933	20.755765
218.070914	-2.991300	3.823400	-11.435000	22.410630	0.000933	20.760757
219.075603	-3.005400	3.823900	-11.490000	22.414692	0.000935	20.789007
220.067925	-2.993000	3.823400	-11.442000	22.411828	0.000934	20.764801
221.067442	-2.993300	3.822400	-11.441000	22.422369	0.000936	20.771090
222.074383	-3.018600	3.822200	-11.537000	22.439215	0.000935	20.738173
223.068470	-2.996300	3.823300	-11.455000	22.431066	0.000936	20.760359
224.076475	-3.012700	3.819900	-11.506000	22.402982	0.000936	20.750252
225.071661	-2.982400	3.822300	-11.398000	22.425136	0.000939	20.742092
226.068821	-2.987800	3.822300	-11.419000	22.398995	0.000939	20.769494
227.072350	-3.002900	3.821300	-11.474000	22.413275	0.000940	20.758189
228.076157	-2.974700	3.822500	-11.369000	22.422620	0.000941	20.763755
229.073377	-3.006400	3.821200	-11.487000	22.443155	0.000939	20.743067
230.073028	-2.987800	3.820700	-11.413000	22.423418	0.000941	20.757916
231.073013	-3.034000	3.819000	-11.586000	22.456164	0.000941	20.735706
232.074599	-2.981900	3.820900	-11.392000	22.455018	0.000943	20.747361
233.069174	-2.988200	3.818900	-11.411000	22.483401	0.000943	20.733585
234.070139	-3.013000	3.818900	-11.505000	22.480362	0.000942	20.748561
235.071276	-3.002900	3.820700	-11.471000	22.506851	0.000944	20.738104
236.073160	-2.989900	3.819400	-11.417000	22.481958	0.000945	20.742097
237.071113	-2.997200	3.819000	-11.444000	22.454896	0.000945	20.744393
238.073503	-2.996400	3.820000	-11.445000	22.474183	0.000942	20.758968
239.070594	-3.022900	3.819300	-11.544000	22.485074	0.000944	20.745692
240.075967	-3.027500	3.817000	-11.555000	22.467556	0.000945	20.747116
241.073021	-3.009300	3.818500	-11.490000	22.495790	0.000947	20.747889
242.070960	-3.014300	3.818000	-11.507000	22.504836	0.000945	20.758372
243.073113	-3.004900	3.817500	-11.470000	22.521581	0.000945	20.735313
244.070987	-3.002700	3.817300	-11.462000	22.512238	0.000948	20.746344
245.075620	-3.008700	3.814900	-11.476000	22.510370	0.000947	20.738783
246.075782	-3.010700	3.816700	-11.489000	22.541317	0.000947	20.750812
247.071501	-2.983900	3.816900	-11.389000	22.540770	0.000949	20.749789
248.075959	-2.995300	3.817600	-11.434000	22.546949	0.000949	20.744124
249.073735	-3.004500	3.815700	-11.463000	22.559110	0.000949	20.732121
250.074602	-2.992500	3.817500	-11.423000	22.564916	0.000947	20.724185
251.077874	-2.991200	3.816200	-11.413000	22.571868	0.000950	20.748219
252.077104	-3.015000	3.815100	-11.501000	22.585324	0.000949	20.722340
253.073440	-2.998100	3.815900	-11.439000	22.587642	0.000950	20.739835
254.075347	-2.999900	3.815900	-11.445000	22.618016	0.000952	20.745601
255.072890	-2.983200	3.814600	-11.378000	22.624967	0.000951	20.750193
256.076234	-2.995100	3.815400	-11.425000	22.614354	0.000953	20.744304
257.077439	-2.992200	3.815900	-11.417000	22.635209	0.000953	20.741485
258.075512	-3.010900	3.814500	-11.484000	22.642609	0.000954	20.749371
259.075782	-3.015100	3.813500	-11.497000	22.657310	0.000955	20.718575
260.073971	-3.000000	3.814300	-11.442000	22.655018	0.000955	20.734299
261.073672	-2.988600	3.814400	-11.398000	22.658158	0.000954	20.719899
262.077178	-3.007700	3.813900	-11.469000	22.675997	0.000954	20.721172
263.075202	-2.996400	3.813900	-11.427000	22.695529	0.000955	20.728884
264.079450	-2.981400	3.814900	-11.373000	22.686089	0.000958	20.732230
265.077231	-3.007900	3.811400	-11.462000	22.718127	0.000957	20.712638
266.076066	-2.990500	3.813400	-11.404000	22.705547	0.000956	20.735124
267.076857	-3.003700	3.811600	-11.448000	22.731008	0.000955	20.727438
268.078677	-3.007600	3.811100	-11.462000	22.730935	0.000958	20.720726
269.077622	-2.980700	3.811600	-11.361000	22.723535	0.000957	20.737496
270.077210	-2.997100	3.811600	-11.422000	22.731732	0.000959	20.726266
271.076842	-2.991600	3.812800	-11.406000	22.742744	0.000959	20.698889
272.076268	-2.993700	3.811300	-11.409000	22.743244	0.000961	20.710296
