LabVIEW Measurement	
Writer_Version	2
Reader_Version	2
Separator	Tab
Decimal_Separator	.
Multi_Headings	No
X_Columns	One
Time_Pref	Absolute
Operator	admin
Description	Clolumns are: time, Current, Voltage, Power, Battery Temp, and Chamber Temp
Date	2024/08/16
Time	13:06:06.104549407958984375
***End_of_Header***	
	
Channels	6						
Samples	1	1	1	1	1	1	
Date	2024/08/22	2024/08/22	2024/08/22	2024/08/22	2024/08/22	2024/08/22	
Time	18:30:10.8232703208923339844	18:30:10.828273773193359375	18:30:10.8352742195129394531	18:30:10.8075690269470214844	18:30:10.8075690269470214844	18:30:10.8075690269470214844	
X_Dimension	Time	Time	Time	Time	Time	Time	
X0	0.0000000000000000E+0	0.0000000000000000E+0	0.0000000000000000E+0	0.0000000000000000E+0	0.0000000000000000E+0	0.0000000000000000E+0	
Delta_X	1.000000	1.000000	1.000000	1.000000	1.000000	1.000000	
***End_of_Header***							
X_Value	Untitled	Untitled 1	Untitled 2	Untitled 3	Untitled 4	Untitled 5	Comment
0.000000	0.005041	4.108200	0.020690	21.086348	0.000984	20.891029
1.002917	-2.999900	3.953600	-11.860000	21.084876	0.000984	20.885764
2.000919	-2.982300	3.948100	-11.773000	21.086374	0.000982	20.895796
3.001918	-2.997300	3.942600	-11.816000	21.089093	0.000981	20.894723
4.000919	-2.997700	3.940500	-11.812000	21.095829	0.000982	20.890556
5.004206	-3.002300	3.935400	-11.814000	21.086798	0.000981	20.883894
6.004210	-3.014400	3.932700	-11.854000	21.119456	0.000980	20.890481
7.003635	-3.020100	3.928400	-11.863000	21.100645	0.000980	20.876407
8.005636	-3.011600	3.926200	-11.823000	21.076545	0.000977	20.893077
9.002632	-3.017900	3.924100	-11.842000	21.085376	0.000977	20.874885
10.007702	-2.994000	3.924300	-11.748000	21.094833	0.000980	20.866327
11.006701	-2.988500	3.922000	-11.720000	21.088970	0.000977	20.884643
12.005699	-3.002300	3.920300	-11.769000	21.086251	0.000978	20.879079
13.006699	-2.987600	3.920000	-11.710000	21.100372	0.000977	20.876135
14.006567	-2.982600	3.918000	-11.685000	21.107933	0.000976	20.865206
15.006569	-2.995300	3.916300	-11.729000	21.102619	0.000974	20.873640
16.007568	-2.986000	3.915500	-11.691000	21.102794	0.000974	20.876660
17.009570	-3.008100	3.914100	-11.773000	21.107884	0.000974	20.863735
18.008510	-3.006800	3.914300	-11.768000	21.105439	0.000973	20.866031
19.009906	-2.973000	3.913900	-11.635000	21.111427	0.000973	20.869649
20.010909	-2.994500	3.912000	-11.713000	21.116642	0.000972	20.887666
21.011907	-2.989500	3.909600	-11.685000	21.132210	0.000972	20.870049
22.011358	-3.004100	3.907600	-11.738000	21.150049	0.000970	20.885047
23.013831	-3.009000	3.907200	-11.756000	21.146830	0.000969	20.856225
24.012977	-2.978800	3.908700	-11.642000	21.149849	0.000970	20.872520
25.012982	-2.990800	3.906400	-11.683000	21.148477	0.000969	20.873519
26.013980	-3.002000	3.906300	-11.726000	21.155338	0.000970	20.864261
27.014907	-2.981300	3.905900	-11.643000	21.164594	0.000968	20.860244
28.015948	-3.004300	3.905100	-11.731000	21.151272	0.000969	20.873470
29.013954	-3.007200	3.903800	-11.738000	21.185200	0.000968	20.844822
30.013950	-3.020000	3.902500	-11.784000	21.161102	0.000968	20.867182
31.021981	-3.005100	3.902600	-11.727000	21.164919	0.000966	20.873844
32.012572	-3.011600	3.901300	-11.748000	21.189042	0.000964	20.878061
33.016576	-3.011900	3.900200	-11.746000	21.189217	0.000967	20.854056
34.013577	-2.991200	3.901300	-11.669000	21.186847	0.000963	20.870176
35.014794	-3.003500	3.899900	-11.711000	21.195029	0.000965	20.875515
36.014414	-2.993200	3.900400	-11.673000	21.202289	0.000968	20.849588
37.014388	-3.022200	3.898300	-11.781000	21.209149	0.000965	20.872097
38.019388	-2.989200	3.897300	-11.649000	21.220101	0.000963	20.851286
39.015394	-3.001500	3.897900	-11.698000	21.233297	0.000962	20.864486
40.019440	-2.988100	3.898200	-11.648000	21.214862	0.000961	20.855054
41.015197	-3.007900	3.896400	-11.719000	21.241580	0.000960	20.857125
42.016199	-3.007300	3.896000	-11.715000	21.246669	0.000962	20.845621
43.016201	-3.006600	3.896500	-11.714000	21.236916	0.000961	20.852459
44.018198	-2.992400	3.897300	-11.661000	21.255351	0.000958	20.839608
45.016767	-2.981700	3.895200	-11.614000	21.252008	0.000958	20.831049
46.017120	-2.991100	3.895600	-11.651000	21.262710	0.000958	20.844599
47.017122	-2.994500	3.894800	-11.661000	21.267525	0.000958	20.833770
48.018170	-3.000600	3.895500	-11.687000	21.288754	0.000959	20.845998
49.026167	-3.017800	3.894000	-11.750000	21.272491	0.000957	20.850117
50.017387	-3.006600	3.892000	-11.700000	21.262788	0.000956	20.840884
51.020388	-2.998200	3.892600	-11.669000	21.268152	0.000958	20.859999
52.020391	-2.998800	3.892700	-11.672000	21.294419	0.000956	20.855932
53.029427	-3.002600	3.892700	-11.687000	21.287709	0.000955	20.827883
54.019265	-3.004200	3.892800	-11.693000	21.287361	0.000955	20.853139
55.022929	-3.002900	3.892800	-11.689000	21.297863	0.000956	20.843257
56.020930	-2.991900	3.891700	-11.642000	21.301231	0.000957	20.833824
57.021704	-2.981000	3.891600	-11.600000	21.309114	0.000955	20.859254
58.019215	-3.010300	3.891800	-11.714000	21.327649	0.000955	20.828012
59.019316	-2.996000	3.890400	-11.654000	21.324681	0.000956	20.841638
60.024314	-3.031000	3.889700	-11.789000	21.319393	0.000955	20.830658
61.020319	-3.016900	3.889900	-11.734000	21.324782	0.000955	20.845057
62.032318	-2.999300	3.891200	-11.670000	21.335433	0.000954	20.839593
63.020284	-3.000200	3.889900	-11.669000	21.344164	0.000956	20.862077
64.020285	-3.005800	3.888200	-11.686000	21.342494	0.000954	20.849027
65.022286	-3.016700	3.888900	-11.731000	21.336108	0.000954	20.844535
66.023422	-3.006100	3.888700	-11.689000	21.329299	0.000953	20.825396
67.023546	-2.978200	3.890400	-11.585000	21.361727	0.000954	20.838873
68.023849	-3.007900	3.888400	-11.694000	21.377716	0.000955	20.827843
69.024851	-3.016000	3.888300	-11.726000	21.366043	0.000953	20.831337
70.023858	-3.010900	3.887100	-11.703000	21.378489	0.000954	20.826720
71.026853	-2.998900	3.887700	-11.658000	21.370259	0.000952	20.826072
72.023459	-3.006800	3.886200	-11.684000	21.384401	0.000954	20.829316
73.023462	-3.015800	3.887300	-11.723000	21.390563	0.000955	20.825049
74.023467	-2.988400	3.887000	-11.615000	21.383480	0.000952	20.832187
75.023815	-2.996500	3.885300	-11.641000	21.401963	0.000952	20.810377
76.026619	-3.005600	3.886000	-11.679000	21.420646	0.000950	20.833811
77.022107	-2.992400	3.886700	-11.630000	21.416107	0.000952	20.818838
78.025110	-2.993300	3.886100	-11.632000	21.424213	0.000952	20.838802
79.026110	-2.989000	3.885700	-11.614000	21.427904	0.000953	20.817366
80.024070	-2.992100	3.886600	-11.627000	21.441224	0.000950	20.817891
81.039834	-2.997800	3.886400	-11.650000	21.466440	0.000950	20.833638
82.029834	-3.003200	3.885600	-11.669000	21.480233	0.000951	20.835585
83.038835	-3.006500	3.883700	-11.676000	21.478063	0.000949	20.823931
84.040786	-2.999400	3.884100	-11.649000	21.469759	0.000948	20.811829
85.029139	-3.000300	3.883900	-11.652000	21.475719	0.000950	20.790766
86.037126	-2.987000	3.883300	-11.599000	21.505498	0.000949	20.814873
87.031158	-3.011600	3.882900	-11.693000	21.503755	0.000949	20.829723
88.028160	-2.998100	3.883200	-11.642000	21.492257	0.000950	20.796882
89.029270	-3.011800	3.883000	-11.694000	21.509591	0.000949	20.805218
90.027870	-2.995700	3.881700	-11.627000	21.484950	0.000950	20.799054
91.028868	-3.008400	3.882800	-11.680000	21.488692	0.000950	20.812281
92.031633	-2.997000	3.882100	-11.633000	21.525655	0.000950	20.799007
93.029267	-3.021500	3.880000	-11.723000	21.536654	0.000950	20.811435
94.031139	-2.990000	3.882700	-11.609000	21.524408	0.000951	20.788750
95.029214	-2.997800	3.881200	-11.634000	21.538600	0.000949	20.804848
96.029214	-3.006300	3.881700	-11.667000	21.533089	0.000947	20.818774
97.031423	-2.984600	3.881800	-11.585000	21.543191	0.000950	20.802804
98.034360	-3.002900	3.881000	-11.654000	21.567607	0.000949	20.812537
99.028769	-2.998900	3.881000	-11.638000	21.567134	0.000948	20.777450
100.030295	-2.988000	3.880500	-11.594000	21.561050	0.000949	20.796492
101.032914	-2.979500	3.881800	-11.565000	21.575765	0.000949	20.792725
102.029906	-3.001600	3.881700	-11.651000	21.599058	0.000951	20.801809
103.031098	-3.025000	3.879800	-11.735000	21.574693	0.000953	20.802084
104.030102	-3.004500	3.880600	-11.658000	21.593199	0.000950	20.800687
105.033568	-3.026200	3.878700	-11.737000	21.566141	0.000951	20.801587
106.029425	-2.996600	3.880200	-11.626000	21.568385	0.000951	20.785340
107.032473	-2.996400	3.880400	-11.626000	21.586017	0.000953	20.778328
108.039471	-3.004300	3.879800	-11.653000	21.596817	0.000952	20.797670
109.034472	-3.007300	3.878700	-11.663000	21.596417	0.000951	20.798692
110.031471	-3.012700	3.877600	-11.681000	21.598812	0.000951	20.796347
111.032592	-2.987000	3.878800	-11.585000	21.614448	0.000956	20.783545
112.030593	-2.980200	3.878900	-11.559000	21.631654	0.000953	20.796971
113.032595	-3.010600	3.877200	-11.671000	21.630606	0.000953	20.786439
114.036337	-3.002400	3.877600	-11.640000	21.646941	0.000954	20.798044
115.032923	-3.014200	3.877200	-11.685000	21.647863	0.000953	20.789009
116.033978	-3.016500	3.878200	-11.697000	21.674097	0.000956	20.784917
117.032132	-3.005100	3.875700	-11.645000	21.670405	0.000954	20.797818
118.032135	-2.982400	3.877600	-11.563000	21.673123	0.000956	20.784417
119.038056	-2.995400	3.877000	-11.612000	21.693721	0.000953	20.806453
120.033328	-3.005800	3.876600	-11.651000	21.679008	0.000956	20.790780
121.035333	-2.993100	3.875900	-11.599000	21.694742	0.000954	20.798940
122.033131	-2.988700	3.877000	-11.586000	21.708531	0.000955	20.807050
123.034139	-2.987500	3.876500	-11.580000	21.699080	0.000955	20.780522
124.035529	-2.996400	3.875500	-11.611000	21.711098	0.000955	20.784489
125.034369	-3.001100	3.875000	-11.628000	21.694590	0.000957	20.777451
126.034371	-2.990600	3.875800	-11.590000	21.721171	0.000956	20.794096
127.035370	-2.974300	3.876000	-11.528000	21.726782	0.000955	20.792124
128.033367	-2.979700	3.875500	-11.547000	21.737378	0.000956	20.791349
129.034657	-2.980500	3.876200	-11.551000	21.724859	0.000956	20.785933
130.037659	-2.978700	3.876100	-11.545000	21.757100	0.000956	20.783113
131.035662	-2.994000	3.875300	-11.602000	21.767073	0.000956	20.764644
132.041661	-3.000700	3.873500	-11.622000	21.768618	0.000956	20.764768
133.039260	-2.976500	3.874100	-11.530000	21.777020	0.000956	20.760849
134.037465	-3.003900	3.873000	-11.632000	21.785023	0.000956	20.808688
135.039466	-2.987900	3.873500	-11.572000	21.765624	0.000955	20.796860
136.038469	-3.004200	3.873600	-11.637000	21.762056	0.000957	20.783806
137.036594	-2.970700	3.874200	-11.509000	21.778912	0.000955	20.779339
138.036438	-2.976500	3.874400	-11.531000	21.765422	0.000956	20.782906
139.038445	-2.983200	3.873700	-11.555000	21.808209	0.000958	20.778315
140.038445	-3.001900	3.873700	-11.627000	21.807334	0.000958	20.782655
141.040540	-2.998800	3.874000	-11.617000	21.796438	0.000960	20.776017
142.042692	-2.999300	3.873700	-11.617000	21.815610	0.000958	20.787146
143.039663	-2.980700	3.873300	-11.545000	21.798256	0.000957	20.793010
144.040667	-3.022900	3.871200	-11.702000	21.813838	0.000957	20.767828
145.040669	-2.987300	3.873800	-11.571000	21.853505	0.000958	20.799944
146.045916	-2.976500	3.871800	-11.523000	21.834706	0.000957	20.796775
147.041824	-3.001900	3.871300	-11.620000	21.829543	0.000961	20.786392
148.043827	-3.020300	3.872100	-11.694000	21.839241	0.000959	20.785193
149.043826	-2.998200	3.871500	-11.607000	21.863350	0.000959	20.785142
150.054047	-2.991800	3.871100	-11.581000	21.872973	0.000961	20.799041
151.041079	-2.992400	3.870200	-11.580000	21.883942	0.000960	20.801486
152.045083	-2.978200	3.872000	-11.531000	21.876361	0.000961	20.791053
153.042173	-2.979600	3.870400	-11.531000	21.912287	0.000959	20.792874
154.048243	-2.991500	3.870200	-11.576000	21.907000	0.000961	20.779996
155.042274	-2.990600	3.869700	-11.571000	21.915077	0.000959	20.790926
156.043758	-2.985800	3.870500	-11.556000	21.910513	0.000961	20.790624
157.046763	-2.986700	3.870200	-11.557000	21.924025	0.000962	20.784709
158.045800	-3.005300	3.868800	-11.625000	21.904228	0.000962	20.781489
159.045745	-3.005200	3.868500	-11.625000	21.929458	0.000963	20.780190
160.045546	-2.999500	3.868900	-11.604000	21.919184	0.000962	20.791244
161.045487	-2.999100	3.869000	-11.602000	21.933918	0.000962	20.785129
162.046322	-2.998600	3.868600	-11.599000	21.927535	0.000962	20.800076
163.050614	-2.991700	3.868200	-11.572000	21.941669	0.000962	20.803793
164.046944	-2.983700	3.869600	-11.545000	21.942865	0.000963	20.808309
165.046118	-2.988300	3.867400	-11.556000	21.961362	0.000963	20.808807
166.054120	-2.988200	3.869800	-11.562000	21.939996	0.000963	20.807334
167.047120	-2.984100	3.868600	-11.542000	21.950415	0.000964	20.795479
168.051666	-2.992700	3.866900	-11.571000	21.961284	0.000964	20.793082
169.048664	-2.996000	3.866600	-11.583000	21.970756	0.000966	20.821530
170.048670	-2.996300	3.867100	-11.587000	21.962204	0.000965	20.792107
171.048672	-3.006000	3.866700	-11.621000	21.970605	0.000964	20.803361
172.049057	-2.986000	3.868000	-11.549000	21.975066	0.000964	20.802136
173.052849	-2.975300	3.867100	-11.503000	21.962924	0.000968	20.804681
174.049853	-3.013700	3.866300	-11.651000	21.989598	0.000966	20.784915
175.052904	-3.018400	3.864700	-11.663000	21.984836	0.000964	20.808123
176.052029	-2.981000	3.868200	-11.531000	22.006075	0.000964	20.793823
177.050430	-2.997900	3.865100	-11.586000	21.999517	0.000967	20.823294
178.050505	-3.014300	3.865400	-11.650000	22.004428	0.000967	20.813511
179.053507	-3.014100	3.864800	-11.647000	22.019036	0.000967	20.800633
180.051592	-3.008300	3.865400	-11.627000	22.014299	0.000967	20.813909
181.050766	-3.004600	3.864900	-11.612000	22.029480	0.000967	20.787381
182.051331	-2.997100	3.865500	-11.584000	22.017738	0.000967	20.819722
183.051329	-3.005300	3.864000	-11.610000	22.031822	0.000967	20.801105
184.058331	-3.020300	3.862100	-11.663000	22.031148	0.000965	20.793792
185.055328	-3.019800	3.863900	-11.667000	22.038477	0.000967	20.807767
186.056656	-3.002200	3.863900	-11.599000	22.062383	0.000966	20.808940
187.052658	-3.008300	3.863800	-11.622000	22.066720	0.000967	20.791471
188.052676	-3.019300	3.864300	-11.667000	22.088880	0.000966	20.804647
189.055123	-3.000900	3.865000	-11.598000	22.080654	0.000969	20.784083
190.052354	-3.001000	3.864400	-11.596000	22.085814	0.000968	20.795413
191.051540	-2.997200	3.864300	-11.581000	22.093616	0.000967	20.807017
192.053543	-3.001100	3.863200	-11.594000	22.088530	0.000969	20.793391
193.052546	-3.025400	3.861000	-11.680000	22.085239	0.000969	20.816175
194.057093	-2.998900	3.861800	-11.579000	22.096407	0.000971	20.821191
195.056507	-2.999000	3.862000	-11.581000	22.093864	0.000971	20.813430
196.052056	-2.972100	3.863000	-11.479000	22.079680	0.000970	20.814877
197.054058	-3.002600	3.862200	-11.596000	22.107673	0.000971	20.815875
198.056059	-3.005700	3.862700	-11.609000	22.098375	0.000971	20.834066
199.056517	-3.021000	3.861600	-11.665000	22.112708	0.000971	20.822812
200.058151	-3.002300	3.862200	-11.594000	22.117917	0.000972	20.800526
201.069154	-2.995400	3.861500	-11.565000	22.134594	0.000974	20.822437
202.063153	-2.982000	3.862000	-11.514000	22.137833	0.000974	20.805292
203.066151	-3.000000	3.860500	-11.580000	22.142370	0.000975	20.811730
204.056554	-2.984500	3.861800	-11.524000	22.149025	0.000974	20.798005
205.059552	-2.999900	3.859600	-11.576000	22.142045	0.000975	20.837010
206.060551	-2.990700	3.859500	-11.542000	22.171532	0.000975	20.814375
207.059552	-2.990100	3.858900	-11.538000	22.189079	0.000975	20.807287
208.056549	-3.015400	3.859300	-11.636000	22.158969	0.000978	20.833565
209.057063	-2.989200	3.860400	-11.537000	22.189329	0.000977	20.799950
210.059780	-2.988900	3.859800	-11.535000	22.182125	0.000979	20.819290
211.064781	-2.994900	3.858800	-11.556000	22.191023	0.000977	20.822035
212.060779	-2.984700	3.859000	-11.516000	22.206077	0.000978	20.813400
213.063838	-3.020200	3.857600	-11.650000	22.185065	0.000979	20.831716
214.060584	-2.991600	3.858800	-11.541000	22.180603	0.000978	20.818241
215.061588	-3.014700	3.857400	-11.627000	22.207971	0.000979	20.824779
216.063832	-2.990700	3.859800	-11.543000	22.214276	0.000979	20.821135
217.063824	-2.997700	3.857500	-11.562000	22.215347	0.000979	20.826949
218.062600	-3.012600	3.857500	-11.620000	22.212555	0.000980	20.831265
219.062841	-3.012200	3.857300	-11.618000	22.222699	0.000978	20.824353
220.062841	-2.993700	3.857500	-11.546000	22.220630	0.000980	20.822755
221.062845	-3.013100	3.856600	-11.619000	22.224044	0.000979	20.806734
222.065062	-2.993400	3.858100	-11.547000	22.252108	0.000981	20.841470
223.063025	-3.001900	3.857200	-11.577000	22.235309	0.000985	20.835556
224.066026	-3.006600	3.855500	-11.590000	22.251859	0.000983	20.827470
225.069027	-2.992100	3.856100	-11.536000	22.259709	0.000983	20.831064
226.062397	-2.978400	3.856100	-11.483000	22.259360	0.000982	20.837352
227.061207	-3.031400	3.855200	-11.685000	22.270925	0.000983	20.806732
228.062208	-3.005200	3.855800	-11.586000	22.245328	0.000983	20.836578
229.064208	-3.012900	3.854700	-11.612000	22.288345	0.000984	20.831761
230.062206	-3.008400	3.855000	-11.595000	22.286650	0.000983	20.816788
231.064909	-2.997100	3.855000	-11.552000	22.285504	0.000984	20.834132
232.062793	-2.980100	3.854100	-11.484000	22.308881	0.000984	20.851849
233.063797	-3.010300	3.854400	-11.602000	22.304345	0.000984	20.828342
234.062795	-3.004000	3.855300	-11.580000	22.306937	0.000985	20.839946
235.061414	-2.991200	3.856400	-11.533000	22.336469	0.000987	20.824473
236.061882	-2.995600	3.855200	-11.547000	22.304145	0.000984	20.864175
237.063887	-2.994500	3.854100	-11.540000	22.318126	0.000987	20.838822
238.067695	-2.977900	3.856200	-11.482000	22.329690	0.000988	20.843289
239.063468	-2.985600	3.855500	-11.509000	22.318425	0.000988	20.851449
240.064322	-3.008900	3.853000	-11.592000	22.313815	0.000988	20.852522
241.063323	-2.996200	3.853700	-11.545000	22.316257	0.000987	20.839321
242.063323	-2.997200	3.853200	-11.548000	22.297814	0.000986	20.834604
243.066322	-3.017800	3.851900	-11.623000	22.305191	0.000989	20.851947
244.069401	-3.016600	3.854300	-11.625000	22.337814	0.000991	20.844785
245.063706	-2.984500	3.853200	-11.497000	22.319595	0.000989	20.839345
246.064709	-2.986100	3.853600	-11.507000	22.333328	0.000993	20.836500
247.067052	-3.017900	3.851200	-11.621000	22.354610	0.000993	20.841690
248.064047	-3.004600	3.852500	-11.574000	22.364978	0.000992	20.844485
249.071464	-3.012100	3.851200	-11.599000	22.358224	0.000995	20.848153
250.064464	-2.997700	3.851400	-11.544000	22.388278	0.000992	20.836524
251.070467	-2.997400	3.852600	-11.547000	22.355607	0.000994	20.856437
252.066163	-2.996700	3.850900	-11.538000	22.370434	0.000994	20.842837
253.065941	-2.992100	3.851800	-11.523000	22.371257	0.000997	20.864996
254.068057	-3.009700	3.851400	-11.591000	22.397573	0.000996	20.850572
255.067058	-2.998100	3.851300	-11.545000	22.388053	0.000998	20.835349
256.070058	-2.995300	3.850600	-11.531000	22.401485	0.001000	20.849748
257.069060	-3.020900	3.849600	-11.628000	22.406269	0.000998	20.839841
258.070031	-2.986600	3.851300	-11.501000	22.429470	0.001001	20.855487
259.072033	-3.009200	3.849200	-11.582000	22.409907	0.001000	20.845380
260.069370	-3.027300	3.849100	-11.651000	22.430092	0.001001	20.866067
261.068350	-3.008100	3.850200	-11.581000	22.430365	0.001001	20.854962
262.067059	-2.994100	3.850600	-11.527000	22.452345	0.001000	20.845204
263.067958	-2.988900	3.850000	-11.506000	22.478733	0.001000	20.864044
264.068964	-3.011100	3.849200	-11.589000	22.474322	0.001002	20.861998
265.070858	-3.023700	3.847700	-11.633000	22.499565	0.001003	20.856932
266.073856	-2.990100	3.849300	-11.508000	22.487878	0.001001	20.856607
267.067515	-3.003700	3.848300	-11.558000	22.515288	0.001003	20.872203
268.068354	-2.992200	3.849700	-11.517000	22.495502	0.001003	20.860924
269.069357	-3.019300	3.846800	-11.614000	22.514764	0.001002	20.855558
270.071359	-3.011800	3.848600	-11.589000	22.506042	0.001004	20.872427
271.072322	-2.999600	3.847500	-11.540000	22.524107	0.001005	20.874398
272.068631	-3.006900	3.848300	-11.570000	22.554531	0.001007	20.885901
