LabVIEW Measurement	
Writer_Version	2
Reader_Version	2
Separator	Tab
Decimal_Separator	.
Multi_Headings	No
X_Columns	One
Time_Pref	Absolute
Operator	admin
Description	Clolumns are: time, Current, Voltage, Power, Battery Temp, and Chamber Temp
Date	2024/08/16
Time	13:06:06.104549407958984375
***End_of_Header***	
	
Channels	6						
Samples	1	1	1	1	1	1	
Date	2024/09/17	2024/09/17	2024/09/17	2024/09/17	2024/09/17	2024/09/17	
Time	19:20:34.5396609306335449219	19:20:34.5450153350830078125	19:20:34.5507078170776367188	19:20:34.5234761238098144531	19:20:34.5234761238098144531	19:20:34.5234761238098144531	
X_Dimension	Time	Time	Time	Time	Time	Time	
X0	0.0000000000000000E+0	0.0000000000000000E+0	0.0000000000000000E+0	0.0000000000000000E+0	0.0000000000000000E+0	0.0000000000000000E+0	
Delta_X	1.000000	1.000000	1.000000	1.000000	1.000000	1.000000	
***End_of_Header***							
X_Value	Untitled	Untitled 1	Untitled 2	Untitled 3	Untitled 4	Untitled 5	Comment
0.000000	0.015380	4.095400	0.062991	21.018201	0.000972	20.810543
1.001565	-2.977900	3.911000	-11.646000	20.977212	0.000971	20.802263
2.005051	-3.004700	3.903500	-11.728000	21.004712	0.000971	20.804638
3.006330	-2.986700	3.899800	-11.646000	20.990716	0.000970	20.812451
4.010212	-2.995600	3.894500	-11.664000	21.018014	0.000969	20.799925
5.008060	-3.024200	3.890500	-11.764000	21.003693	0.000970	20.803145
6.007801	-3.002800	3.888400	-11.675000	21.013356	0.000968	20.787679
7.007907	-3.010800	3.884100	-11.693000	21.024309	0.000966	20.803375
8.006622	-3.013100	3.882700	-11.697000	21.008693	0.000965	20.811939
9.006488	-3.002300	3.879900	-11.647000	21.014056	0.000966	20.807346
10.011103	-3.006900	3.877900	-11.658000	21.019225	0.000964	20.793550
11.006826	-3.015900	3.876300	-11.689000	21.019477	0.000962	20.831733
12.011313	-2.994800	3.875800	-11.606000	21.013441	0.000962	20.786816
13.009768	-2.969900	3.875900	-11.508000	21.019856	0.000961	20.808879
14.007243	-3.009800	3.871400	-11.650000	21.038793	0.000960	20.806957
15.010105	-3.011600	3.870000	-11.654000	21.037697	0.000961	20.795429
16.008758	-3.007700	3.869600	-11.638000	21.016145	0.000961	20.782408
17.006233	-2.998300	3.868600	-11.598000	21.036377	0.000960	20.806437
18.014175	-2.997900	3.868800	-11.597000	21.068064	0.000960	20.811105
19.009185	-3.002300	3.867100	-11.608000	21.068443	0.000959	20.801526
20.008265	-3.000100	3.865200	-11.595000	21.075228	0.000958	20.806891
21.009456	-3.015500	3.864200	-11.651000	21.070541	0.000958	20.812160
22.006268	-2.994800	3.864400	-11.571000	21.083839	0.000958	20.809340
23.012341	-2.980500	3.864000	-11.516000	21.079527	0.000957	20.812613
24.010374	-3.015500	3.861700	-11.644000	21.097986	0.000956	20.789825
25.008870	-2.987200	3.862000	-11.535000	21.089206	0.000955	20.788155
26.010897	-2.985400	3.861000	-11.525000	21.092128	0.000956	20.795820
27.011891	-2.995100	3.859100	-11.557000	21.097144	0.000957	20.810794
28.017065	-2.999500	3.858400	-11.572000	21.125536	0.000955	20.782770
29.012571	-3.018300	3.857600	-11.641000	21.116007	0.000955	20.783669
30.010310	-2.992100	3.858800	-11.545000	21.146867	0.000955	20.786089
31.011823	-3.010300	3.857200	-11.611000	21.127136	0.000955	20.781525
32.013172	-2.999800	3.855500	-11.565000	21.137044	0.000955	20.778160
33.011435	-2.998600	3.855400	-11.560000	21.134097	0.000954	20.768099
34.011447	-2.982100	3.855800	-11.497000	21.137716	0.000954	20.781203
35.010635	-2.986300	3.855300	-11.512000	21.169323	0.000951	20.783421
36.011795	-3.003800	3.854500	-11.577000	21.161668	0.000953	20.793308
37.011535	-2.996100	3.853800	-11.545000	21.189605	0.000952	20.776210
38.022049	-3.009900	3.852400	-11.593000	21.187462	0.000955	20.798248
39.011964	-3.011000	3.853000	-11.598000	21.183649	0.000952	20.784950
40.013318	-3.020100	3.850700	-11.629000	21.194798	0.000954	20.784724
41.018463	-3.021400	3.851100	-11.635000	21.206599	0.000952	20.782778
42.016766	-3.012300	3.851500	-11.600000	21.225208	0.000955	20.771996
43.016754	-3.007500	3.850200	-11.578000	21.200936	0.000954	20.793708
44.022016	-3.000600	3.849800	-11.551000	21.231497	0.000955	20.783503
45.016817	-2.967600	3.851100	-11.428000	21.235788	0.000952	20.789692
46.020999	-2.979000	3.849200	-11.465000	21.245518	0.000951	20.773348
47.017990	-3.002900	3.848900	-11.555000	21.244298	0.000952	20.776869
48.018455	-2.982300	3.848400	-11.476000	21.267328	0.000951	20.791374
49.016829	-3.006800	3.848400	-11.570000	21.266426	0.000954	20.787152
50.018802	-2.986500	3.846800	-11.487000	21.290602	0.000954	20.772457
51.017645	-2.982800	3.847500	-11.476000	21.290354	0.000951	20.797340
52.015445	-3.001600	3.848100	-11.549000	21.279132	0.000952	20.784216
53.016281	-3.016200	3.846500	-11.600000	21.307194	0.000953	20.774831
54.021115	-2.988400	3.847500	-11.497000	21.289662	0.000953	20.782422
55.016299	-3.002700	3.845200	-11.544000	21.304556	0.000952	20.764131
56.017123	-3.006400	3.845800	-11.561000	21.309423	0.000953	20.763311
57.018626	-2.984200	3.843700	-11.470000	21.326608	0.000952	20.775289
58.023249	-2.992200	3.844400	-11.503000	21.325961	0.000952	20.770374
59.023937	-3.005300	3.842900	-11.547000	21.309101	0.000951	20.780533
60.019064	-3.005600	3.843800	-11.552000	21.340155	0.000950	20.785996
61.027437	-3.021300	3.843000	-11.611000	21.366731	0.000953	20.778920
62.023910	-2.988300	3.844200	-11.486000	21.345952	0.000950	20.776150
63.022557	-2.974300	3.843300	-11.430000	21.391626	0.000951	20.788655
64.022250	-3.019500	3.842800	-11.602000	21.378657	0.000953	20.767144
65.023731	-2.993000	3.842500	-11.499000	21.372100	0.000951	20.780499
66.023225	-2.991500	3.841300	-11.490000	21.398293	0.000954	20.790110
67.021704	-2.990400	3.841900	-11.488000	21.391436	0.000954	20.766653
68.024069	-2.970900	3.843600	-11.417000	21.395004	0.000953	20.754102
69.023245	-2.996700	3.840700	-11.508000	21.425087	0.000954	20.759545
70.023742	-3.016900	3.839400	-11.582000	21.415036	0.000952	20.769877
71.026176	-2.995300	3.840700	-11.502000	21.421353	0.000953	20.762447
72.023969	-3.012100	3.839700	-11.565000	21.423302	0.000952	20.772458
73.024125	-3.018300	3.838100	-11.583000	21.446420	0.000953	20.750069
74.024308	-2.994200	3.838700	-11.492000	21.441059	0.000951	20.750869
75.023752	-2.969600	3.840700	-11.404000	21.460068	0.000952	20.753768
76.029033	-2.976600	3.839600	-11.426000	21.445752	0.000954	20.757462
77.023733	-2.986500	3.839000	-11.464000	21.454583	0.000952	20.760608
78.021970	-2.995600	3.837500	-11.494000	21.450441	0.000952	20.757412
79.028330	-2.978300	3.837700	-11.429000	21.467756	0.000954	20.762410
80.020738	-3.002700	3.836700	-11.519000	21.486242	0.000952	20.776164
81.027214	-2.990100	3.837900	-11.474000	21.471201	0.000952	20.733613
82.029055	-2.992500	3.837200	-11.481000	21.498517	0.000951	20.744824
83.023814	-3.016500	3.836400	-11.572000	21.522432	0.000952	20.759271
84.025330	-2.995200	3.836600	-11.490000	21.519441	0.000952	20.766710
85.029045	-3.006100	3.835700	-11.530000	21.539796	0.000953	20.745825
86.019162	-3.022400	3.834600	-11.588000	21.561720	0.000953	20.735047
87.025425	-3.030800	3.834500	-11.619000	21.540723	0.000953	20.726363
88.024309	-2.991000	3.834300	-11.467000	21.550995	0.000953	20.756084
89.025080	-2.988200	3.834200	-11.456000	21.561374	0.000954	20.738494
90.027877	-3.005200	3.833000	-11.518000	21.578560	0.000955	20.738622
91.023378	-2.991500	3.834000	-11.469000	21.558609	0.000955	20.745685
92.036292	-2.994200	3.833500	-11.476000	21.565296	0.000955	20.730565
93.025135	-3.001600	3.832900	-11.504000	21.599441	0.000953	20.742922
94.026248	-2.994000	3.833000	-11.474000	21.573854	0.000954	20.729645
95.026695	-3.003900	3.832100	-11.510000	21.591040	0.000954	20.757275
96.029498	-3.002900	3.833300	-11.510000	21.630717	0.000954	20.741978
97.024673	-2.963300	3.834500	-11.361000	21.613935	0.000955	20.736090
98.027683	-3.008400	3.830900	-11.523000	21.619650	0.000954	20.750344
99.030010	-2.990100	3.831300	-11.455000	21.613317	0.000956	20.760602
100.028287	-2.993000	3.831500	-11.467000	21.657682	0.000955	20.743833
101.031586	-2.999700	3.830300	-11.488000	21.654666	0.000956	20.740340
102.028119	-2.993400	3.830700	-11.466000	21.657142	0.000954	20.730490
103.031850	-2.989200	3.830400	-11.449000	21.660286	0.000957	20.749758
104.027189	-2.978000	3.831900	-11.411000	21.676646	0.000957	20.734361
105.028724	-2.999100	3.830700	-11.488000	21.696994	0.000954	20.738130
106.024574	-3.001700	3.830000	-11.496000	21.725100	0.000956	20.724057
107.029581	-2.983700	3.830300	-11.428000	21.707574	0.000954	20.741132
108.028280	-3.023700	3.828200	-11.575000	21.716827	0.000955	20.722890
109.028406	-3.002100	3.829200	-11.495000	21.720098	0.000955	20.740389
110.027803	-3.009200	3.829200	-11.522000	21.728029	0.000957	20.733627
111.028296	-3.025900	3.827300	-11.579000	21.738204	0.000956	20.711567
112.030138	-3.012600	3.827900	-11.530000	21.738282	0.000956	20.730613
113.031278	-2.997200	3.827100	-11.470000	21.752767	0.000957	20.745585
114.031420	-2.987400	3.828500	-11.436000	21.764520	0.000958	20.738855
115.025950	-3.005900	3.826800	-11.503000	21.775466	0.000958	20.730369
116.029747	-2.994100	3.828600	-11.462000	21.774745	0.000958	20.732967
117.030882	-2.984100	3.826300	-11.417000	21.780504	0.000956	20.725929
118.032133	-2.983900	3.827100	-11.418000	21.804789	0.000960	20.738381
119.036013	-2.993900	3.826000	-11.454000	21.802898	0.000959	20.729376
120.031508	-3.000200	3.825900	-11.478000	21.788591	0.000959	20.725961
121.034383	-3.003200	3.825900	-11.489000	21.810882	0.000959	20.732625
122.032961	-3.003300	3.827200	-11.492000	21.821600	0.000960	20.725335
123.034458	-3.003700	3.825600	-11.490000	21.819586	0.000961	20.732802
124.033790	-2.990700	3.826100	-11.441000	21.844969	0.000960	20.723120
125.033247	-3.020000	3.825300	-11.552000	21.852005	0.000961	20.721628
126.038393	-2.996600	3.824900	-11.460000	21.837196	0.000960	20.744739
127.037808	-2.979900	3.825300	-11.398000	21.874624	0.000961	20.729095
128.039238	-2.990500	3.826800	-11.442000	21.860413	0.000963	20.724827
129.035721	-3.003000	3.824000	-11.481000	21.874426	0.000963	20.720362
130.038855	-3.000800	3.824200	-11.475000	21.870814	0.000962	20.722910
131.036145	-3.002200	3.824800	-11.480000	21.872688	0.000963	20.720044
132.039162	-2.982600	3.824200	-11.405000	21.880745	0.000962	20.722893
133.038536	-2.998300	3.823600	-11.464000	21.890343	0.000963	20.733449
134.037889	-3.000400	3.823500	-11.471000	21.917965	0.000964	20.730278
135.035276	-3.000600	3.823700	-11.472000	21.931731	0.000964	20.721772
136.043429	-3.028200	3.822000	-11.573000	21.912635	0.000965	20.723520
137.046301	-2.988100	3.823500	-11.424000	21.920836	0.000964	20.718927
138.037616	-2.995400	3.822300	-11.448000	21.918225	0.000966	20.733857
139.042950	-2.998700	3.822100	-11.460000	21.924733	0.000963	20.728992
140.043296	-3.006000	3.821800	-11.487000	21.942086	0.000965	20.723128
141.037121	-3.007700	3.820800	-11.491000	21.942037	0.000964	20.710750
142.036451	-3.005800	3.822100	-11.487000	21.946325	0.000966	20.722629
143.037753	-3.008300	3.821000	-11.494000	21.961561	0.000967	20.733614
144.036714	-2.997900	3.820000	-11.451000	21.979989	0.000967	20.721714
145.039609	-2.987300	3.820200	-11.411000	21.985743	0.000967	20.724629
146.036974	-3.012600	3.820100	-11.508000	21.992625	0.000969	20.728200
147.036124	-3.020400	3.819100	-11.533000	22.002527	0.000967	20.712981
148.036925	-2.994100	3.819200	-11.434000	22.005146	0.000969	20.715603
149.040019	-2.988300	3.819300	-11.413000	22.005216	0.000971	20.741753
150.039471	-2.991600	3.819800	-11.425000	21.999730	0.000970	20.713026
151.042526	-3.004500	3.818800	-11.473000	22.011901	0.000971	20.707666
152.043512	-3.014300	3.818100	-11.509000	22.032416	0.000969	20.726782
153.046306	-3.023000	3.818000	-11.541000	22.037601	0.000970	20.725334
154.044249	-3.007700	3.817400	-11.481000	22.053528	0.000973	20.726580
155.042714	-3.027100	3.817800	-11.555000	22.051160	0.000972	20.723734
156.046396	-3.000200	3.818300	-11.454000	22.045254	0.000972	20.702173
157.042668	-2.995400	3.817600	-11.434000	22.051588	0.000973	20.740760
158.052639	-2.985400	3.818100	-11.397000	22.088955	0.000972	20.732175
159.044586	-2.999500	3.817200	-11.449000	22.092242	0.000975	20.725033
160.047153	-2.998200	3.817200	-11.444000	22.116125	0.000974	20.723339
161.044812	-2.995900	3.815900	-11.431000	22.116351	0.000975	20.755809
162.047527	-2.984100	3.817900	-11.393000	22.125819	0.000974	20.724984
163.045895	-2.988100	3.817000	-11.405000	22.125428	0.000974	20.746404
164.045437	-2.997300	3.816400	-11.437000	22.129661	0.000976	20.708915
165.046374	-2.973300	3.817500	-11.348000	22.122784	0.000977	20.713410
166.044459	-3.000800	3.815800	-11.450000	22.129563	0.000978	20.739638
167.047963	-2.993800	3.814400	-11.418000	22.105260	0.000979	20.731903
168.049850	-2.999300	3.814800	-11.440000	22.164181	0.000977	20.727829
169.053658	-3.011400	3.815200	-11.487000	22.146262	0.000980	20.730752
170.052279	-3.005400	3.816300	-11.468000	22.168122	0.000977	20.755958
171.051344	-3.008400	3.814900	-11.476000	22.169394	0.000980	20.736842
172.052164	-2.988200	3.815300	-11.399000	22.200947	0.000979	20.734768
173.052333	-2.985800	3.814800	-11.389000	22.200947	0.000979	20.743778
174.049658	-2.984500	3.814700	-11.384000	22.213610	0.000982	20.722790
175.053483	-2.994400	3.813900	-11.420000	22.235966	0.000981	20.744701
176.051681	-3.002500	3.812700	-11.446000	22.233697	0.000980	20.732946
177.049850	-2.996400	3.813200	-11.424000	22.226396	0.000981	20.717574
178.054905	-3.005400	3.812800	-11.458000	22.237638	0.000982	20.745427
179.054376	-2.996900	3.812100	-11.423000	22.254460	0.000982	20.770331
180.056953	-2.984100	3.813100	-11.378000	22.260295	0.000983	20.732550
181.054217	-3.036300	3.811700	-11.572000	22.249596	0.000986	20.723734
182.056728	-2.997700	3.811700	-11.426000	22.262860	0.000985	20.736541
183.055520	-3.001400	3.813300	-11.445000	22.267501	0.000985	20.745456
184.054790	-3.003900	3.812300	-11.449000	22.270638	0.000986	20.750495
185.055448	-2.980800	3.812200	-11.362000	22.284128	0.000985	20.739819
186.051837	-3.014100	3.810300	-11.484000	22.269267	0.000984	20.743431
187.053246	-3.023100	3.809800	-11.516000	22.284149	0.000987	20.745056
188.054425	-3.004900	3.810500	-11.449000	22.299557	0.000987	20.737725
189.058156	-2.982100	3.811900	-11.366000	22.314311	0.000988	20.741118
190.056731	-2.986600	3.811200	-11.382000	22.336912	0.000987	20.726291
191.058741	-2.989100	3.809900	-11.388000	22.330485	0.000989	20.724596
192.056090	-2.977200	3.811900	-11.348000	22.336789	0.000989	20.735651
193.053949	-2.981700	3.810100	-11.360000	22.372903	0.000990	20.759961
194.069443	-2.993200	3.809100	-11.400000	22.356335	0.000989	20.759491
195.056945	-2.983400	3.810000	-11.366000	22.384572	0.000990	20.744145
196.061193	-3.009800	3.808800	-11.461000	22.361420	0.000991	20.759368
197.065348	-3.022300	3.808300	-11.508000	22.390184	0.000992	20.738859
198.058533	-3.011500	3.808600	-11.468000	22.387018	0.000991	20.770777
199.061547	-3.013900	3.807700	-11.475000	22.395841	0.000992	20.748318
200.060738	-3.004300	3.807600	-11.438000	22.404463	0.000994	20.736088
201.060289	-2.999200	3.807800	-11.419000	22.405509	0.000992	20.748515
202.059801	-3.003300	3.807300	-11.433000	22.443844	0.000993	20.740438
203.060363	-3.007000	3.807400	-11.448000	22.439710	0.000995	20.747204
204.061596	-3.006900	3.806800	-11.445000	22.430710	0.000994	20.764744
205.057614	-2.989800	3.807000	-11.381000	22.432575	0.000994	20.756181
206.057741	-3.007200	3.806500	-11.446000	22.455681	0.000997	20.760353
207.061878	-3.029800	3.806600	-11.531000	22.467139	0.000997	20.760448
208.059498	-3.019200	3.806500	-11.491000	22.435173	0.000999	20.738867
209.060490	-2.983200	3.806300	-11.354000	22.470111	0.000996	20.751097
210.058844	-3.011500	3.806100	-11.462000	22.486707	0.000995	20.742586
211.061937	-2.992000	3.806500	-11.388000	22.489819	0.000998	20.772257
212.059635	-3.013400	3.804900	-11.465000	22.510079	0.000999	20.741811
213.061479	-2.970900	3.806300	-11.307000	22.534171	0.000999	20.747448
214.059398	-3.016500	3.803400	-11.471000	22.537267	0.000999	20.761454
215.060453	-2.987400	3.804500	-11.365000	22.541721	0.000999	20.777295
216.061905	-3.011200	3.803000	-11.450000	22.560460	0.001000	20.755760
217.060843	-2.995100	3.803400	-11.391000	22.546583	0.001002	20.751344
218.062840	-3.004700	3.803700	-11.427000	22.581266	0.001000	20.762848
219.066723	-2.998400	3.802100	-11.399000	22.578850	0.001001	20.772756
220.062327	-2.995500	3.803600	-11.392000	22.544269	0.001003	20.779373
221.063336	-3.011200	3.802400	-11.449000	22.551025	0.001004	20.748206
222.068545	-2.991300	3.803200	-11.375000	22.551194	0.001005	20.770187
223.061869	-2.982500	3.802400	-11.339000	22.586877	0.001005	20.769416
224.060376	-2.998400	3.802600	-11.401000	22.595646	0.001006	20.772983
225.060428	-2.988100	3.803100	-11.362000	22.587030	0.001004	20.764827
226.059894	-2.985800	3.800700	-11.347000	22.616006	0.001004	20.738846
227.061371	-2.984400	3.802200	-11.347000	22.606966	0.001006	20.761087
228.061370	-3.000500	3.801800	-11.405000	22.630686	0.001006	20.775836
229.061476	-2.996000	3.800200	-11.385000	22.647798	0.001007	20.758836
230.061880	-3.006400	3.800900	-11.424000	22.677876	0.001006	20.771420
231.063258	-2.995700	3.800800	-11.385000	22.665247	0.001008	20.763986
232.065404	-2.974100	3.802400	-11.308000	22.665963	0.001008	20.776083
233.060980	-2.968900	3.799900	-11.281000	22.657521	0.001008	20.778058
234.065181	-2.990900	3.800100	-11.364000	22.665646	0.001009	20.794258
235.070354	-3.001200	3.798400	-11.399000	22.696346	0.001009	20.775222
236.065757	-2.979600	3.800700	-11.322000	22.670508	0.001009	20.759298
237.064755	-2.970600	3.801100	-11.290000	22.696741	0.001008	20.773721
238.065839	-2.962500	3.800100	-11.256000	22.683338	0.001011	20.761244
239.071981	-2.991500	3.800600	-11.369000	22.667939	0.001010	20.796080
240.063177	-2.971800	3.798600	-11.288000	22.710769	0.001012	20.779712
241.084255	-3.004300	3.798300	-11.410000	22.719190	0.001012	20.785303
242.065991	-2.987600	3.798400	-11.346000	22.717573	0.001012	20.766612
243.066963	-2.975400	3.798100	-11.300000	22.729761	0.001014	20.771235
244.076998	-3.004700	3.796900	-11.408000	22.715877	0.001015	20.770158
245.067750	-2.977100	3.797500	-11.305000	22.709604	0.001013	20.771907
246.067598	-2.980300	3.796700	-11.314000	22.708283	0.001015	20.793817
247.068865	-3.003200	3.796300	-11.400000	22.721640	0.001015	20.770686
248.074826	-2.991400	3.797500	-11.359000	22.753379	0.001015	20.766918
249.066354	-2.992400	3.795100	-11.355000	22.757956	0.001016	20.786676
250.070444	-2.982400	3.796200	-11.321000	22.771489	0.001017	20.781740
251.072214	-3.006200	3.795900	-11.410000	22.782470	0.001016	20.797482
252.073366	-3.003900	3.793900	-11.396000	22.795258	0.001017	20.770464
253.071412	-2.997400	3.795600	-11.376000	22.796847	0.001018	20.781538
254.073562	-2.992400	3.795400	-11.357000	22.799164	0.001018	20.779592
255.071081	-2.993900	3.794600	-11.359000	22.804391	0.001018	20.786725
256.073687	-2.994600	3.793900	-11.360000	22.821135	0.001020	20.803972
257.075167	-2.983900	3.794800	-11.323000	22.845722	0.001020	20.786878
258.068852	-2.984400	3.792700	-11.318000	22.839569	0.001021	20.788774
259.069484	-2.994300	3.794600	-11.361000	22.863008	0.001021	20.784280
260.070922	-2.992200	3.792600	-11.347000	22.856159	0.001023	20.782635
261.072442	-2.985100	3.793000	-11.322000	22.866699	0.001020	20.782289
262.072380	-2.989300	3.794000	-11.339000	22.864530	0.001023	20.805246
263.074912	-3.001300	3.792500	-11.381000	22.891730	0.001022	20.783658
264.074537	-3.008600	3.790300	-11.402000	22.905509	0.001023	20.805048
265.074687	-2.985300	3.793400	-11.323000	22.902048	0.001023	20.799684
266.069252	-3.020000	3.789500	-11.444000	22.908995	0.001025	20.795738
267.068093	-3.025500	3.790100	-11.465000	22.923547	0.001025	20.784713
268.072212	-2.995700	3.789600	-11.350000	22.883137	0.001026	20.801601
269.068053	-3.007800	3.789700	-11.398000	22.921925	0.001026	20.782614
270.071299	-3.000900	3.790000	-11.371000	22.927930	0.001027	20.808070
271.072364	-2.993900	3.789900	-11.346000	22.922102	0.001027	20.790852
272.079520	-2.988600	3.789500	-11.324000	22.944893	0.001026	20.806574
