LabVIEW Measurement	
Writer_Version	2
Reader_Version	2
Separator	Tab
Decimal_Separator	.
Multi_Headings	No
X_Columns	One
Time_Pref	Absolute
Operator	admin
Description	Clolumns are: time, Current, Voltage, Power, Battery Temp, and Chamber Temp
Date	2024/08/16
Time	13:06:06.104549407958984375
***End_of_Header***	
	
Channels	6						
Samples	1	1	1	1	1	1	
Date	2024/09/19	2024/09/19	2024/09/19	2024/09/19	2024/09/19	2024/09/19	
Time	01:16:18.2939634323120117188	01:16:18.3019838333129882812	01:16:18.3107233047485351562	01:16:18.27852630615234375	01:16:18.27852630615234375	01:16:18.27852630615234375	
X_Dimension	Time	Time	Time	Time	Time	Time	
X0	0.0000000000000000E+0	0.0000000000000000E+0	0.0000000000000000E+0	0.0000000000000000E+0	0.0000000000000000E+0	0.0000000000000000E+0	
Delta_X	1.000000	1.000000	1.000000	1.000000	1.000000	1.000000	
***End_of_Header***							
X_Value	Untitled	Untitled 1	Untitled 2	Untitled 3	Untitled 4	Untitled 5	Comment
0.000000	0.013940	4.093400	0.056974	20.979997	0.001001	20.716853
1.000985	-3.012200	3.905200	-11.762000	20.976254	0.000999	20.724016
2.002973	-2.980900	3.900900	-11.627000	20.985286	0.001002	20.734947
3.011377	-3.024500	3.894300	-11.776000	20.979997	0.000999	20.722543
4.001985	-2.994300	3.889700	-11.646000	20.974133	0.000997	20.733275
5.008941	-2.997700	3.885600	-11.646000	20.981269	0.000997	20.734722
6.001185	-3.021100	3.883100	-11.731000	20.985635	0.000996	20.737667
7.003068	-3.011100	3.880300	-11.683000	20.978200	0.000994	20.732601
8.003881	-2.998600	3.878500	-11.629000	21.014080	0.000994	20.735770
9.003267	-2.995200	3.876700	-11.609000	20.998535	0.000993	20.728757
10.004315	-3.022700	3.872200	-11.702000	21.006819	0.000992	20.745104
11.006499	-2.992300	3.872200	-11.587000	21.003301	0.000991	20.736369
12.006920	-2.980800	3.870200	-11.534000	21.027303	0.000990	20.732875
13.005229	-2.996000	3.869600	-11.592000	21.007542	0.000990	20.730654
14.007894	-3.005900	3.868600	-11.625000	21.034439	0.000991	20.733848
15.006304	-2.997300	3.865600	-11.586000	21.022114	0.000989	20.737168
16.007223	-2.988300	3.865100	-11.547000	21.029823	0.000989	20.747250
17.005958	-3.000900	3.862900	-11.590000	21.041600	0.000989	20.726785
18.006958	-3.005900	3.861500	-11.607000	21.064329	0.000988	20.736718
19.006414	-3.010500	3.860500	-11.620000	21.056520	0.000985	20.749296
20.007799	-2.985900	3.861100	-11.528000	21.048286	0.000986	20.748173
21.006312	-3.024200	3.857900	-11.665000	21.077852	0.000986	20.735545
22.006142	-2.990000	3.859100	-11.538000	21.065302	0.000984	20.739588
23.005488	-3.003500	3.858200	-11.587000	21.084613	0.000983	20.730454
24.006251	-3.006100	3.857100	-11.593000	21.083316	0.000984	20.753813
25.008903	-2.997600	3.857100	-11.561000	21.065926	0.000983	20.743531
26.006685	-3.001300	3.854200	-11.566000	21.082043	0.000986	20.741635
27.008388	-2.978600	3.854900	-11.481000	21.086734	0.000982	20.761500
28.008677	-3.011800	3.853100	-11.604000	21.092921	0.000981	20.736394
29.009233	-2.997300	3.851800	-11.544000	21.085212	0.000982	20.743382
30.009413	-2.978000	3.852500	-11.472000	21.109961	0.000983	20.757232
31.008720	-2.999900	3.852200	-11.555000	21.123334	0.000983	20.750694
32.010036	-2.980300	3.851000	-11.477000	21.134885	0.000983	20.759404
33.009111	-2.985400	3.850600	-11.493000	21.134910	0.000981	20.753265
34.009549	-2.989300	3.850900	-11.510000	21.141671	0.000982	20.738216
35.009815	-2.999400	3.850100	-11.546000	21.151276	0.000979	20.769636
36.010761	-2.993000	3.849400	-11.520000	21.161455	0.000981	20.754213
37.014717	-2.982500	3.848400	-11.477000	21.167741	0.000983	20.734897
38.010038	-3.008100	3.847200	-11.572000	21.171708	0.000982	20.746926
39.011844	-2.982900	3.847400	-11.475000	21.191815	0.000982	20.766566
40.011302	-2.986400	3.846800	-11.486000	21.188223	0.000981	20.737368
41.011786	-2.986300	3.847600	-11.489000	21.201744	0.000981	20.771283
42.015706	-2.996500	3.846200	-11.524000	21.217735	0.000981	20.745553
43.011808	-2.994200	3.845500	-11.514000	21.225668	0.000979	20.753490
44.012393	-2.993400	3.846300	-11.512000	21.248743	0.000981	20.773255
45.014368	-3.005700	3.844100	-11.552000	21.246398	0.000980	20.752416
46.013535	-3.001200	3.843000	-11.533000	21.264185	0.000981	20.760253
47.014109	-2.986800	3.843400	-11.478000	21.258248	0.000981	20.771383
48.013909	-3.006500	3.841400	-11.548000	21.271793	0.000980	20.748424
49.015192	-3.000500	3.842100	-11.527000	21.271269	0.000980	20.768289
50.014325	-3.001000	3.841900	-11.529000	21.281098	0.000983	20.763897
51.013559	-2.986700	3.843300	-11.478000	21.307290	0.000982	20.747425
52.017505	-2.995900	3.841500	-11.508000	21.306417	0.000983	20.759355
53.014779	-3.006100	3.839000	-11.540000	21.325524	0.000980	20.770410
54.014348	-2.987000	3.840700	-11.472000	21.354509	0.000980	20.788977
55.017769	-2.975100	3.841400	-11.428000	21.332658	0.000983	20.762848
56.014606	-2.995600	3.840200	-11.503000	21.351964	0.000979	20.777897
57.015810	-3.005100	3.838800	-11.534000	21.337448	0.000980	20.770960
58.015656	-3.004100	3.839000	-11.531000	21.346452	0.000980	20.762899
59.019065	-2.983400	3.838000	-11.449000	21.367629	0.000979	20.767016
60.015118	-3.017000	3.836100	-11.573000	21.369625	0.000976	20.795092
61.015574	-2.990800	3.837400	-11.476000	21.370498	0.000981	20.770835
62.015045	-3.020700	3.835800	-11.586000	21.405767	0.000980	20.769612
63.015181	-2.980700	3.838000	-11.438000	21.390252	0.000976	20.769737
64.014872	-2.996000	3.835600	-11.490000	21.404844	0.000982	20.745454
65.016283	-2.982500	3.836500	-11.441000	21.421979	0.000981	20.776350
66.016404	-3.004000	3.836200	-11.522000	21.452034	0.000980	20.777498
67.018893	-3.007800	3.835000	-11.533000	21.428614	0.000981	20.773031
68.018652	-3.015100	3.833700	-11.558000	21.425970	0.000979	20.790301
69.018169	-3.001300	3.834100	-11.505000	21.465852	0.000980	20.786108
70.019376	-3.037900	3.834400	-11.648000	21.479594	0.000981	20.771883
71.017532	-3.001500	3.834200	-11.506000	21.471962	0.000978	20.796016
72.018174	-3.027900	3.833200	-11.605000	21.459392	0.000979	20.778222
73.017416	-3.004100	3.833900	-11.516000	21.473982	0.000981	20.787131
74.018100	-2.992500	3.832800	-11.468000	21.485754	0.000982	20.792272
75.018002	-2.985100	3.832900	-11.440000	21.485480	0.000981	20.783463
76.018821	-2.996500	3.832200	-11.482000	21.501367	0.000980	20.801256
77.018260	-2.988100	3.833100	-11.453000	21.491341	0.000981	20.795018
78.017433	-3.007700	3.831300	-11.523000	21.536109	0.000980	20.793820
79.018513	-3.001400	3.831900	-11.500000	21.511144	0.000981	20.785909
80.018632	-2.981800	3.832500	-11.427000	21.539052	0.000981	20.784911
81.017793	-3.009000	3.830700	-11.526000	21.563766	0.000983	20.780244
82.017820	-2.994900	3.831100	-11.472000	21.543989	0.000982	20.787007
83.018462	-3.012400	3.831300	-11.539000	21.548204	0.000981	20.781741
84.018616	-2.972900	3.831500	-11.389000	21.567407	0.000980	20.806173
85.019176	-3.005600	3.830100	-11.510000	21.597732	0.000981	20.785310
86.017343	-3.006000	3.830300	-11.513000	21.584715	0.000982	20.797888
87.019389	-3.010800	3.830700	-11.533000	21.605812	0.000983	20.792921
88.019448	-2.991200	3.829600	-11.454000	21.592022	0.000984	20.801881
89.024827	-2.994200	3.828800	-11.463000	21.602346	0.000982	20.789453
90.019602	-2.991900	3.828900	-11.454000	21.622147	0.000979	20.790301
91.020741	-3.010600	3.828300	-11.525000	21.620775	0.000983	20.790351
92.021183	-2.992300	3.828000	-11.452000	21.628681	0.000982	20.804426
93.021615	-3.009800	3.827700	-11.520000	21.662645	0.000981	20.796690
94.021428	-2.991700	3.827100	-11.449000	21.645838	0.000981	20.804052
95.024525	-3.004800	3.826600	-11.496000	21.658755	0.000983	20.788529
96.021615	-2.989400	3.826300	-11.436000	21.662470	0.000980	20.819748
97.022505	-2.997900	3.826400	-11.470000	21.669602	0.000982	20.794170
98.023818	-2.995100	3.826000	-11.458000	21.691696	0.000984	20.795417
99.023636	-3.011500	3.827500	-11.525000	21.689477	0.000986	20.805999
100.027027	-3.006000	3.825600	-11.498000	21.693566	0.000984	20.787806
101.025528	-2.997000	3.825500	-11.464000	21.717280	0.000983	20.808220
102.025203	-3.028400	3.824500	-11.580000	21.712044	0.000984	20.799186
103.026897	-2.968500	3.825500	-11.355000	21.727604	0.000985	20.820922
104.026398	-2.994700	3.825500	-11.456000	21.713515	0.000985	20.821995
105.027919	-3.000000	3.823300	-11.468000	21.726955	0.000984	20.795143
106.026883	-3.002700	3.824400	-11.483000	21.720946	0.000987	20.792448
107.025286	-3.002200	3.825300	-11.483000	21.740345	0.000986	20.813760
108.027862	-2.987900	3.824200	-11.425000	21.738924	0.000985	20.800484
109.026755	-2.999100	3.822400	-11.462000	21.732391	0.000983	20.811015
110.026699	-3.008200	3.822300	-11.497000	21.762637	0.000985	20.805250
111.030282	-2.996400	3.822600	-11.453000	21.762837	0.000990	20.801656
112.027043	-2.990700	3.823700	-11.435000	21.770691	0.000988	20.826113
113.031244	-2.988400	3.822900	-11.424000	21.781662	0.000988	20.838041
114.027584	-2.988700	3.822500	-11.423000	21.800861	0.000989	20.809842
115.027410	-2.974200	3.822000	-11.366000	21.794528	0.000987	20.813935
116.027730	-3.005400	3.822600	-11.487000	21.793980	0.000988	20.820498
117.029593	-3.011400	3.821700	-11.508000	21.843946	0.000989	20.813136
118.027730	-3.017400	3.821000	-11.528000	21.848409	0.000987	20.839413
119.030689	-3.004100	3.821600	-11.478000	21.850728	0.000989	20.828933
120.027283	-2.988100	3.822500	-11.420000	21.868754	0.000989	20.824690
121.027956	-3.012200	3.820000	-11.506000	21.879051	0.000988	20.819824
122.029253	-2.995400	3.820700	-11.442000	21.887553	0.000990	20.820273
123.030808	-3.002800	3.818900	-11.467000	21.886855	0.000991	20.825264
124.031557	-3.007300	3.820200	-11.488000	21.912983	0.000990	20.836245
125.030160	-3.002500	3.819300	-11.466000	21.915377	0.000989	20.834373
126.031149	-2.993200	3.818800	-11.429000	21.935970	0.000991	20.830805
127.029013	-3.014700	3.819000	-11.511000	21.963667	0.000992	20.844779
128.031743	-3.017100	3.820300	-11.525000	21.947114	0.000993	20.846700
129.033272	-2.989600	3.818200	-11.414000	21.951003	0.000991	20.833050
130.033847	-3.024300	3.816800	-11.542000	21.965986	0.000990	20.854686
131.034606	-3.002600	3.818000	-11.462000	21.954219	0.000991	20.841959
132.032089	-3.006300	3.816200	-11.471000	21.944372	0.000992	20.832102
133.030205	-3.011100	3.818400	-11.495000	21.952349	0.000995	20.843881
134.031772	-3.009200	3.818400	-11.489000	21.976856	0.000996	20.827161
135.031743	-2.989600	3.818100	-11.413000	21.999990	0.000995	20.817129
136.032998	-2.993600	3.816900	-11.424000	22.000464	0.000996	20.836095
137.033906	-2.999800	3.816400	-11.447000	22.020233	0.000995	20.818901
138.035269	-2.982300	3.816900	-11.383000	22.019659	0.000996	20.838715
139.033890	-2.976600	3.816900	-11.360000	22.042968	0.000996	20.837867
140.033928	-2.995900	3.815300	-11.428000	22.030030	0.000998	20.852415
141.035746	-3.006900	3.816200	-11.474000	22.045835	0.000997	20.848797
142.034685	-2.992200	3.814900	-11.413000	22.059071	0.000995	20.840237
143.037250	-3.004400	3.817100	-11.466000	22.067622	0.000998	20.857331
144.034838	-2.996400	3.814700	-11.430000	22.093646	0.000998	20.846401
145.037058	-2.990900	3.815200	-11.409000	22.093696	0.000998	20.841236
146.036172	-2.992200	3.814500	-11.413000	22.106434	0.000998	20.855884
147.038311	-3.007500	3.814800	-11.471000	22.090655	0.000999	20.818752
148.038834	-3.007600	3.813900	-11.469000	22.111095	0.000999	20.851542
149.037180	-3.020200	3.812400	-11.513000	22.106833	0.001002	20.839214
150.036852	-3.035700	3.812200	-11.571000	22.104963	0.001000	20.844929
151.037349	-2.998500	3.813700	-11.434000	22.125279	0.000999	20.867638
152.038589	-2.989900	3.814500	-11.403000	22.132408	0.001001	20.850120
153.037511	-3.000800	3.812500	-11.439000	22.142005	0.001000	20.842184
154.037509	-2.999600	3.812600	-11.436000	22.146168	0.001000	20.869584
155.037191	-3.012000	3.812200	-11.482000	22.152574	0.001002	20.870782
156.038461	-3.007500	3.811500	-11.462000	22.157709	0.001003	20.862647
157.038376	-2.991000	3.811800	-11.399000	22.148461	0.001003	20.890845
158.043534	-2.968400	3.813500	-11.319000	22.155889	0.001002	20.864619
159.037806	-2.994100	3.812500	-11.413000	22.201802	0.001004	20.866490
160.043645	-2.998600	3.811900	-11.430000	22.179619	0.001005	20.876048
161.045784	-2.990100	3.811100	-11.394000	22.184105	0.001004	20.873902
162.040733	-3.012900	3.811400	-11.481000	22.197017	0.001006	20.874027
163.039897	-3.006200	3.810000	-11.453000	22.223287	0.001005	20.890846
164.041409	-2.998700	3.810100	-11.424000	22.211498	0.001007	20.869086
165.040626	-2.995900	3.810700	-11.415000	22.218253	0.001007	20.880116
166.040881	-3.022000	3.808700	-11.507000	22.233108	0.001006	20.870808
167.041185	-3.008000	3.810000	-11.459000	22.226029	0.001005	20.872255
168.040109	-3.006000	3.810000	-11.451000	22.239040	0.001008	20.860153
169.040932	-3.018100	3.807300	-11.489000	22.266282	0.001008	20.896436
170.041452	-3.008800	3.808900	-11.460000	22.290457	0.001008	20.871332
171.041453	-3.012400	3.809000	-11.473000	22.277124	0.001007	20.871732
172.041390	-2.993000	3.809600	-11.400000	22.302670	0.001010	20.877870
173.041262	-3.007600	3.808700	-11.453000	22.313960	0.001010	20.881114
174.042276	-3.014400	3.808300	-11.479000	22.304738	0.001009	20.872830
175.041306	-3.006400	3.807600	-11.447000	22.296589	0.001010	20.888376
176.041872	-2.990200	3.809000	-11.389000	22.337736	0.001010	20.890223
177.041525	-3.003000	3.807300	-11.432000	22.335218	0.001010	20.874901
178.041481	-2.992700	3.807900	-11.395000	22.346832	0.001012	20.867091
179.042173	-3.002900	3.806600	-11.430000	22.351991	0.001013	20.883160
180.045032	-3.006000	3.806600	-11.442000	22.364751	0.001014	20.899256
181.051522	-2.997900	3.805900	-11.409000	22.371430	0.001013	20.889350
182.044124	-3.010200	3.806100	-11.456000	22.404650	0.001015	20.901277
183.044743	-3.006800	3.805300	-11.441000	22.397522	0.001013	20.906468
184.045139	-2.998500	3.805300	-11.409000	22.405621	0.001014	20.897983
185.044940	-2.988600	3.806300	-11.375000	22.433308	0.001017	20.895363
186.043302	-2.996500	3.805500	-11.401000	22.446366	0.001016	20.877621
187.044292	-3.007200	3.804900	-11.440000	22.452546	0.001018	20.901826
188.048336	-2.994200	3.804800	-11.391000	22.437220	0.001018	20.892644
189.043926	-3.004300	3.805600	-11.432000	22.450403	0.001018	20.882612
190.043963	-2.995900	3.805400	-11.399000	22.449331	0.001018	20.900978
191.045005	-2.969500	3.804900	-11.298000	22.484293	0.001020	20.885732
192.045758	-3.001800	3.803700	-11.417000	22.467049	0.001018	20.895489
193.050417	-3.007500	3.803100	-11.437000	22.505100	0.001021	20.892344
194.049440	-2.998200	3.802800	-11.401000	22.494834	0.001018	20.877797
195.047186	-3.004300	3.804000	-11.427000	22.517634	0.001021	20.900629
196.046146	-2.989600	3.803200	-11.369000	22.503705	0.001023	20.902800
197.044063	-2.992100	3.803700	-11.380000	22.517659	0.001021	20.882638
198.045499	-3.004600	3.803300	-11.427000	22.521820	0.001021	20.865469
199.046037	-2.996500	3.800900	-11.388000	22.538939	0.001022	20.881664
200.044538	-2.978500	3.802700	-11.325000	22.537070	0.001022	20.892120
201.046872	-3.006500	3.800800	-11.425000	22.541879	0.001025	20.874178
202.046417	-3.006400	3.800800	-11.425000	22.561389	0.001024	20.896562
203.047576	-2.994000	3.801400	-11.380000	22.541705	0.001024	20.879219
204.047204	-3.010400	3.800800	-11.440000	22.545816	0.001023	20.882862
205.048190	-2.989500	3.801400	-11.363000	22.544097	0.001026	20.889675
206.049758	-2.986100	3.801000	-11.349000	22.548706	0.001027	20.868689
207.051076	-2.998500	3.801100	-11.397000	22.550276	0.001028	20.864097
208.050471	-3.005500	3.800400	-11.420000	22.563981	0.001027	20.866443
209.049942	-3.035900	3.798500	-11.531000	22.566423	0.001029	20.869363
210.051316	-3.017000	3.797700	-11.457000	22.581846	0.001028	20.858732
211.049939	-3.009000	3.799100	-11.431000	22.597070	0.001028	20.880143
212.049831	-3.013100	3.797700	-11.441000	22.586880	0.001026	20.857610
213.050956	-3.012100	3.798300	-11.439000	22.603923	0.001030	20.862825
214.050755	-3.003300	3.799600	-11.410000	22.603872	0.001030	20.855663
215.052392	-2.992500	3.799200	-11.368000	22.632725	0.001029	20.845682
216.051021	-2.996800	3.798400	-11.381000	22.647799	0.001033	20.862676
217.050583	-2.993400	3.797200	-11.365000	22.632600	0.001030	20.872582
218.052118	-3.004100	3.797700	-11.408000	22.647699	0.001032	20.853567
219.056849	-3.009700	3.797500	-11.428000	22.622012	0.001033	20.866244
220.054270	-3.004700	3.796900	-11.408000	22.655199	0.001032	20.871035
221.051388	-2.990100	3.797800	-11.354000	22.644810	0.001033	20.866794
222.052146	-2.986100	3.797300	-11.337000	22.638755	0.001035	20.841764
223.052299	-2.995600	3.796500	-11.371000	22.642218	0.001035	20.847129
224.053570	-3.015700	3.795100	-11.443000	22.636638	0.001036	20.847704
225.052437	-2.982400	3.796900	-11.322000	22.626746	0.001036	20.843012
226.052000	-3.008500	3.795200	-11.417000	22.628416	0.001037	20.854167
227.053641	-2.996100	3.795000	-11.368000	22.612445	0.001036	20.845284
228.051996	-2.997100	3.795300	-11.374000	22.665664	0.001036	20.854492
229.053032	-3.003700	3.794700	-11.397000	22.661603	0.001036	20.858484
230.052988	-2.982900	3.795900	-11.322000	22.665963	0.001038	20.876601
231.053651	-3.005800	3.795800	-11.408000	22.647800	0.001039	20.828539
232.053181	-2.996300	3.794100	-11.367000	22.684250	0.001038	20.847979
233.054213	-2.995900	3.793400	-11.363000	22.694764	0.001040	20.855665
234.054047	-2.988300	3.793600	-11.336000	22.700993	0.001038	20.832507
235.063877	-3.001800	3.792100	-11.382000	22.696434	0.001042	20.830311
236.054797	-3.003800	3.792700	-11.391000	22.726156	0.001040	20.846806
237.054270	-2.995000	3.793800	-11.361000	22.725682	0.001041	20.841590
238.053936	-2.999700	3.791900	-11.373000	22.721098	0.001042	20.835102
239.053251	-3.014300	3.791900	-11.429000	22.708043	0.001041	20.862327
240.053925	-3.005600	3.792600	-11.397000	22.725857	0.001040	20.833231
241.057781	-2.995700	3.792300	-11.360000	22.721222	0.001042	20.820528
242.055034	-2.997500	3.792300	-11.366000	22.689681	0.001041	20.841091
243.054548	-2.998200	3.791500	-11.366000	22.698999	0.001044	20.852795
244.057447	-3.006600	3.792100	-11.400000	22.684724	0.001044	20.852720
245.055127	-2.995700	3.792100	-11.359000	22.696832	0.001044	20.831184
246.055554	-3.003300	3.791800	-11.387000	22.711631	0.001046	20.826568
247.055584	-2.992200	3.791600	-11.345000	22.721821	0.001046	20.815912
248.056363	-2.999400	3.791100	-11.369000	22.742921	0.001047	20.838471
249.053976	-2.989200	3.790300	-11.329000	22.753036	0.001046	20.839120
250.056168	-2.984100	3.792100	-11.314000	22.761158	0.001049	20.833505
251.056296	-2.995300	3.788800	-11.348000	22.771646	0.001046	20.855864
252.055625	-2.969700	3.790000	-11.254000	22.780166	0.001050	20.822674
253.056664	-3.008100	3.787600	-11.393000	22.807021	0.001049	20.829188
254.058410	-3.002800	3.788200	-11.374000	22.783330	0.001050	20.822999
255.062107	-3.011600	3.788500	-11.408000	22.809039	0.001048	20.828364
256.057367	-3.014300	3.787400	-11.415000	22.810583	0.001049	20.819480
257.056328	-3.006400	3.788400	-11.388000	22.843341	0.001051	20.825270
258.064870	-3.011400	3.788100	-11.405000	22.821120	0.001051	20.836674
259.060054	-3.002400	3.787300	-11.370000	22.832381	0.001052	20.802910
260.064981	-3.018500	3.786100	-11.426000	22.808939	0.001053	20.822575
261.064095	-2.996100	3.787400	-11.346000	22.824259	0.001051	20.813266
262.062269	-2.999500	3.787800	-11.360000	22.851785	0.001054	20.825194
263.060806	-3.003700	3.786300	-11.371000	22.863917	0.001052	20.800838
264.068145	-3.012500	3.785000	-11.401000	22.869845	0.001054	20.823847
265.061689	-3.021400	3.786500	-11.440000	22.895652	0.001055	20.832631
266.061375	-2.998600	3.784900	-11.348000	22.904918	0.001055	20.822474
267.066925	-3.017700	3.784500	-11.419000	22.924323	0.001054	20.821526
268.062511	-3.020300	3.784400	-11.428000	22.930276	0.001054	20.816111
269.064766	-2.988300	3.785300	-11.310000	22.915255	0.001056	20.804856
270.065312	-3.003100	3.785500	-11.367000	22.926888	0.001055	20.815087
271.065018	-3.003000	3.783900	-11.362000	22.951298	0.001057	20.809198
272.065249	-3.013400	3.782900	-11.397000	22.957899	0.001055	20.794474
