LabVIEW Measurement	
Writer_Version	2
Reader_Version	2
Separator	Tab
Decimal_Separator	.
Multi_Headings	No
X_Columns	One
Time_Pref	Absolute
Operator	admin
Description	Clolumns are: time, Current, Voltage, Power, Battery Temp, and Chamber Temp
Date	2024/08/16
Time	13:06:06.104549407958984375
***End_of_Header***	
	
Channels	6						
Samples	1	1	1	1	1	1	
Date	2024/09/09	2024/09/09	2024/09/09	2024/09/09	2024/09/09	2024/09/09	
Time	23:01:27.1292614936828613281	23:01:27.138896942138671875	23:01:27.1527414321899414062	23:01:27.1082081794738769531	23:01:27.1082081794738769531	23:01:27.1082081794738769531	
X_Dimension	Time	Time	Time	Time	Time	Time	
X0	0.0000000000000000E+0	0.0000000000000000E+0	0.0000000000000000E+0	0.0000000000000000E+0	0.0000000000000000E+0	0.0000000000000000E+0	
Delta_X	1.000000	1.000000	1.000000	1.000000	1.000000	1.000000	
***End_of_Header***							
X_Value	Untitled	Untitled 1	Untitled 2	Untitled 3	Untitled 4	Untitled 5	Comment
0.000000	0.022778	4.091200	0.093149	20.952277	0.000901	20.710940
0.997939	-3.005800	3.919300	-11.779000	20.962535	0.000900	20.703656
1.997297	-2.996600	3.912300	-11.723000	20.961007	0.000901	20.700704
3.004245	-3.009800	3.907400	-11.758000	20.942142	0.000900	20.692267
3.996401	-3.000000	3.903200	-11.708000	20.969761	0.000898	20.704245
5.000529	-3.008300	3.900000	-11.731000	20.972949	0.000898	20.703640
5.998502	-2.986700	3.897500	-11.640000	20.967040	0.000898	20.693461
6.999778	-3.023300	3.892600	-11.767000	20.966361	0.000898	20.704163
7.998571	-3.004600	3.892700	-11.695000	20.991602	0.000898	20.686258
9.002589	-3.000900	3.890900	-11.675000	20.975786	0.000896	20.688932
10.000517	-2.989500	3.890100	-11.629000	20.979824	0.000894	20.714309
10.997686	-3.004300	3.887400	-11.677000	20.986380	0.000896	20.692889
12.000218	-2.996600	3.884900	-11.640000	20.976122	0.000894	20.709184
12.997823	-3.009800	3.884500	-11.688000	20.970327	0.000892	20.688687
13.998793	-2.998700	3.883300	-11.645000	20.991039	0.000893	20.722208
15.006982	-3.014600	3.880500	-11.697000	20.989388	0.000891	20.690682
16.004524	-3.001900	3.880600	-11.648000	20.997717	0.000891	20.705178
16.997283	-2.994900	3.882300	-11.626000	21.001853	0.000892	20.703625
18.004849	-2.988000	3.879600	-11.591000	20.996614	0.000890	20.686529
18.998130	-3.019500	3.878300	-11.710000	21.005474	0.000888	20.719101
20.002053	-3.009400	3.877800	-11.669000	21.025753	0.000888	20.687699
21.000147	-2.994700	3.875700	-11.605000	21.014571	0.000888	20.713976
22.003482	-3.006500	3.874700	-11.647000	21.036680	0.000886	20.707165
23.001679	-3.023700	3.873600	-11.712000	21.052194	0.000888	20.697076
24.004721	-2.985100	3.873400	-11.560000	21.042639	0.000886	20.712177
25.001013	-2.993900	3.872900	-11.594000	21.047755	0.000886	20.720140
26.004066	-3.006100	3.871400	-11.637000	21.035970	0.000887	20.694599
27.003850	-3.010200	3.872300	-11.655000	21.049497	0.000886	20.716666
28.001205	-2.991900	3.870500	-11.579000	21.059648	0.000885	20.713068
29.006267	-2.976500	3.870700	-11.520000	21.081822	0.000885	20.706324
30.001460	-2.980900	3.869900	-11.535000	21.073567	0.000885	20.686685
31.002244	-2.998800	3.868600	-11.600000	21.089259	0.000886	20.700960
32.007100	-2.992400	3.868800	-11.576000	21.098005	0.000885	20.716347
33.006962	-3.003800	3.867700	-11.617000	21.084331	0.000885	20.715473
34.002899	-2.992400	3.869000	-11.576000	21.078185	0.000884	20.717859
35.003348	-3.023100	3.866000	-11.687000	21.101805	0.000882	20.717778
36.001523	-3.006000	3.867000	-11.623000	21.105164	0.000885	20.722561
37.001768	-3.006700	3.866100	-11.623000	21.119009	0.000883	20.726927
38.003557	-3.007500	3.866100	-11.626000	21.131832	0.000884	20.715571
39.008212	-3.008100	3.863800	-11.621000	21.146069	0.000883	20.708001
40.006939	-3.026600	3.862900	-11.690000	21.160968	0.000882	20.725750
41.004776	-3.017700	3.863000	-11.657000	21.141958	0.000883	20.719536
42.004326	-2.994600	3.864100	-11.571000	21.171093	0.000883	20.714541
43.007952	-2.994300	3.863700	-11.567000	21.170423	0.000883	20.697748
44.004342	-3.006900	3.862200	-11.611000	21.172270	0.000880	20.705760
45.006159	-3.022800	3.861000	-11.671000	21.180443	0.000881	20.729584
46.004554	-3.024400	3.862100	-11.680000	21.180549	0.000883	20.705981
47.006325	-3.019100	3.861300	-11.657000	21.204772	0.000881	20.722153
48.002639	-2.995000	3.860900	-11.562000	21.201805	0.000881	20.720607
49.003932	-3.014000	3.860600	-11.635000	21.211685	0.000884	20.723379
50.004672	-2.991900	3.859700	-11.546000	21.228299	0.000881	20.713445
51.004056	-3.008000	3.860100	-11.609000	21.240704	0.000880	20.717795
52.007053	-3.006900	3.859600	-11.605000	21.227506	0.000878	20.702694
53.006217	-3.004700	3.859800	-11.596000	21.239478	0.000882	20.708981
54.005583	-3.015600	3.858000	-11.633000	21.256696	0.000880	20.736639
55.007102	-3.002100	3.857400	-11.578000	21.239004	0.000882	20.707559
56.009332	-3.003500	3.857000	-11.583000	21.275875	0.000880	20.717893
57.006669	-3.012100	3.855700	-11.611000	21.270065	0.000882	20.736263
58.011115	-3.030800	3.855800	-11.685000	21.278580	0.000880	20.713960
59.012466	-2.998500	3.858100	-11.568000	21.274805	0.000881	20.712554
60.011665	-2.977300	3.858100	-11.485000	21.295168	0.000880	20.740040
61.014839	-2.995500	3.855700	-11.548000	21.303618	0.000880	20.717672
62.015059	-2.980700	3.855800	-11.492000	21.312876	0.000880	20.734521
63.014701	-3.004100	3.855200	-11.580000	21.311928	0.000880	20.724089
64.013316	-2.980500	3.855700	-11.491000	21.331964	0.000880	20.710469
65.014410	-3.001300	3.854200	-11.567000	21.319266	0.000881	20.728586
66.010262	-2.973100	3.854500	-11.459000	21.331465	0.000881	20.732731
67.019080	-3.009000	3.853300	-11.594000	21.349924	0.000881	20.725594
68.020185	-3.022000	3.854100	-11.646000	21.344294	0.000880	20.707631
69.014774	-2.994100	3.854300	-11.539000	21.334031	0.000880	20.742885
70.016700	-2.998600	3.853500	-11.555000	21.361969	0.000882	20.721048
71.019784	-3.005600	3.853300	-11.580000	21.379037	0.000881	20.748558
72.018697	-3.010100	3.853000	-11.596000	21.387119	0.000881	20.710174
73.021171	-2.988200	3.853800	-11.514000	21.387723	0.000880	20.714572
74.019149	-2.983600	3.853100	-11.495000	21.399325	0.000882	20.727604
75.015454	-2.994400	3.852500	-11.535000	21.421599	0.000882	20.732820
76.020620	-2.982000	3.852700	-11.487000	21.427539	0.000883	20.734970
77.023703	-3.011100	3.851600	-11.596000	21.429263	0.000880	20.733376
78.019816	-3.010000	3.852700	-11.595000	21.436371	0.000881	20.735747
79.017091	-2.979500	3.851800	-11.476000	21.444574	0.000880	20.729730
80.024086	-2.989800	3.851700	-11.515000	21.470866	0.000880	20.719052
81.014283	-2.998000	3.850400	-11.542000	21.477027	0.000881	20.737545
82.022630	-2.994100	3.850000	-11.525000	21.480646	0.000883	20.735951
83.024714	-2.996300	3.850200	-11.535000	21.485638	0.000879	20.746162
84.015953	-3.000700	3.849000	-11.549000	21.484992	0.000880	20.749309
85.018974	-3.016500	3.850100	-11.613000	21.506014	0.000882	20.730988
86.022794	-3.021600	3.848800	-11.629000	21.514854	0.000882	20.736515
87.020350	-3.011800	3.849800	-11.594000	21.526292	0.000881	20.751754
88.021963	-3.014900	3.848300	-11.601000	21.547501	0.000881	20.747846
89.021080	-3.001800	3.848300	-11.551000	21.534282	0.000881	20.732721
90.019645	-3.027000	3.847700	-11.645000	21.537754	0.000881	20.740937
91.019094	-3.016900	3.846800	-11.603000	21.532885	0.000884	20.741281
92.020432	-3.019700	3.847200	-11.616000	21.554911	0.000883	20.723491
93.015420	-3.008000	3.847700	-11.572000	21.545915	0.000883	20.727292
94.024817	-3.002900	3.847600	-11.552000	21.559281	0.000883	20.742564
95.022382	-3.021400	3.846300	-11.619000	21.543072	0.000881	20.760010
96.017186	-2.991500	3.847700	-11.510000	21.565269	0.000885	20.753772
97.022922	-3.002300	3.846900	-11.548000	21.577516	0.000882	20.732835
98.020977	-2.986800	3.846400	-11.487000	21.574697	0.000886	20.729066
99.018838	-3.006200	3.845900	-11.560000	21.566348	0.000884	20.742523
100.025699	-2.988200	3.845000	-11.489000	21.565898	0.000884	20.734012
101.017518	-2.986400	3.845000	-11.482000	21.586992	0.000886	20.756070
102.020310	-2.986700	3.845900	-11.486000	21.602064	0.000884	20.739857
103.024541	-3.001900	3.845800	-11.543000	21.603012	0.000883	20.721364
104.021583	-2.998200	3.844000	-11.523000	21.601689	0.000886	20.762716
105.020751	-2.987400	3.845900	-11.488000	21.632013	0.000885	20.744223
106.024156	-2.988500	3.844000	-11.487000	21.630314	0.000885	20.738255
107.022666	-3.014300	3.844300	-11.587000	21.646529	0.000887	20.741206
108.019567	-2.961200	3.844200	-11.382000	21.671714	0.000886	20.754083
109.018638	-2.997200	3.843300	-11.516000	21.648572	0.000886	20.732344
110.019768	-2.973200	3.843700	-11.426000	21.662867	0.000886	20.753764
111.017047	-3.009800	3.842200	-11.563000	21.692969	0.000888	20.743111
112.026786	-2.996600	3.843100	-11.516000	21.673642	0.000889	20.736096
113.023598	-2.993700	3.843200	-11.504000	21.700648	0.000886	20.756486
114.021023	-2.975700	3.843200	-11.435000	21.707853	0.000888	20.742833
115.024678	-2.986000	3.843000	-11.474000	21.718357	0.000889	20.743863
116.021938	-2.981700	3.842900	-11.458000	21.711406	0.000888	20.755398
117.026982	-2.978500	3.843400	-11.446000	21.716356	0.000889	20.759879
118.033198	-3.009500	3.840700	-11.557000	21.731132	0.000888	20.755701
119.026595	-2.993400	3.841100	-11.496000	21.750189	0.000889	20.752488
120.022238	-3.002900	3.841100	-11.533000	21.759485	0.000888	20.759895
121.027750	-3.012700	3.839900	-11.566000	21.752452	0.000890	20.758546
122.021566	-3.037200	3.838100	-11.656000	21.753236	0.000890	20.737044
123.039660	-3.007800	3.839400	-11.547000	21.785721	0.000891	20.751065
124.025428	-3.003300	3.839800	-11.531000	21.771892	0.000890	20.749552
125.027719	-3.010100	3.840000	-11.558000	21.803110	0.000891	20.770367
126.023568	-2.988800	3.840700	-11.478000	21.798356	0.000892	20.742374
127.026896	-2.979400	3.840100	-11.439000	21.799647	0.000890	20.764055
128.024711	-2.988100	3.839800	-11.473000	21.814504	0.000892	20.764227
129.022610	-3.004300	3.838500	-11.530000	21.805258	0.000893	20.774413
130.027175	-3.019600	3.837900	-11.586000	21.828373	0.000894	20.760564
131.022576	-3.020000	3.837900	-11.590000	21.856151	0.000892	20.776988
132.030396	-3.018000	3.836700	-11.578000	21.833380	0.000894	20.756567
133.025746	-3.013000	3.838400	-11.565000	21.843516	0.000893	20.764341
134.024935	-3.009000	3.836300	-11.542000	21.866369	0.000892	20.766827
135.029206	-2.991600	3.837900	-11.480000	21.884231	0.000896	20.768110
136.031065	-2.976900	3.839400	-11.428000	21.868900	0.000896	20.774576
137.027307	-2.970100	3.839100	-11.401000	21.877599	0.000894	20.764316
138.028067	-2.981600	3.837900	-11.441000	21.901308	0.000894	20.782359
139.029825	-2.992700	3.836900	-11.481000	21.927010	0.000895	20.761145
140.025354	-2.997000	3.836800	-11.498000	21.921081	0.000895	20.764218
141.029397	-2.993400	3.836300	-11.482000	21.913494	0.000896	20.771797
142.027941	-2.997900	3.837800	-11.505000	21.919211	0.000898	20.786528
143.030403	-3.017900	3.836700	-11.578000	21.910431	0.000896	20.765886
144.026377	-3.008000	3.836000	-11.537000	21.940527	0.000899	20.785106
145.030378	-3.011300	3.836000	-11.550000	21.934638	0.000897	20.779686
146.032100	-2.997900	3.835900	-11.498000	21.927762	0.000895	20.773751
147.030535	-3.011500	3.834100	-11.544000	21.920722	0.000900	20.772394
148.031020	-3.000800	3.835600	-11.508000	21.958845	0.000898	20.782106
149.028268	-2.979200	3.836400	-11.428000	21.966375	0.000898	20.772099
150.033459	-2.999200	3.834800	-11.501000	21.960633	0.000898	20.772042
151.033538	-3.016700	3.834000	-11.564000	21.968482	0.000900	20.768044
152.032462	-3.010300	3.832600	-11.536000	21.981214	0.000901	20.767039
153.030779	-3.008300	3.833700	-11.533000	21.984309	0.000899	20.779146
154.035270	-3.020200	3.832300	-11.572000	22.015668	0.000902	20.777822
155.034472	-3.012300	3.832200	-11.542000	22.028783	0.000901	20.787632
156.034928	-3.012900	3.832300	-11.545000	22.014353	0.000901	20.797368
157.033413	-3.005000	3.832300	-11.515000	22.009021	0.000902	20.765951
158.034256	-2.966200	3.834400	-11.373000	22.027591	0.000903	20.783593
159.033639	-2.997800	3.832000	-11.486000	22.044740	0.000903	20.783217
160.030825	-3.008600	3.831000	-11.524000	22.034932	0.000904	20.788097
161.040371	-3.011700	3.832000	-11.540000	22.065776	0.000903	20.777724
162.031089	-2.992200	3.832600	-11.468000	22.064943	0.000906	20.785898
163.037323	-3.011200	3.830700	-11.534000	22.078474	0.000904	20.759615
164.042167	-3.005100	3.831600	-11.514000	22.094079	0.000906	20.787092
165.034265	-2.986100	3.833600	-11.446000	22.104923	0.000905	20.782301
166.040195	-3.007700	3.830900	-11.520000	22.102629	0.000905	20.790910
167.037395	-3.007100	3.830700	-11.519000	22.107863	0.000906	20.774339
168.034859	-3.005300	3.829600	-11.508000	22.108418	0.000907	20.789594
169.033695	-3.003000	3.829000	-11.498000	22.119222	0.000907	20.795668
170.035566	-2.999900	3.830100	-11.489000	22.141155	0.000907	20.784436
171.038552	-2.983400	3.830500	-11.426000	22.145196	0.000910	20.805077
172.037049	-3.004500	3.829000	-11.503000	22.162197	0.000908	20.801235
173.036604	-2.979600	3.829300	-11.408000	22.176951	0.000909	20.810792
174.052032	-3.009600	3.827700	-11.519000	22.162744	0.000908	20.774756
175.037791	-3.007200	3.828100	-11.510000	22.174004	0.000910	20.804996
176.040048	-2.997600	3.828800	-11.475000	22.190726	0.000912	20.790919
177.045114	-3.000100	3.828400	-11.484000	22.176691	0.000910	20.795358
178.035993	-3.001500	3.829000	-11.492000	22.191747	0.000911	20.795734
179.040362	-3.006100	3.827500	-11.506000	22.205056	0.000912	20.790567
180.036880	-3.006900	3.826200	-11.504000	22.206705	0.000911	20.782735
181.040552	-2.991600	3.827600	-11.449000	22.230727	0.000912	20.803942
182.036822	-2.992900	3.827200	-11.453000	22.209294	0.000913	20.801448
183.038542	-3.001400	3.826500	-11.484000	22.227510	0.000912	20.794557
184.039153	-3.005800	3.826300	-11.500000	22.223648	0.000915	20.816768
185.040853	-3.013000	3.827100	-11.530000	22.218765	0.000915	20.793387
186.039634	-2.979100	3.827800	-11.401000	22.236157	0.000915	20.801317
187.040250	-2.997000	3.827000	-11.467000	22.244909	0.000915	20.791589
188.041828	-2.989800	3.828300	-11.444000	22.274065	0.000917	20.817463
189.037179	-2.984200	3.825800	-11.415000	22.276318	0.000916	20.809762
190.040769	-2.993100	3.826300	-11.451000	22.294876	0.000917	20.816964
191.041366	-2.962600	3.825800	-11.333000	22.289888	0.000915	20.822401
192.041690	-2.992100	3.825000	-11.444000	22.300363	0.000919	20.834785
193.046616	-2.993800	3.825200	-11.450000	22.299783	0.000918	20.813817
194.042186	-2.980100	3.826400	-11.401000	22.307515	0.000919	20.819188
195.040040	-3.010600	3.823900	-11.511000	22.309875	0.000920	20.807326
196.046136	-3.008000	3.823700	-11.499000	22.307050	0.000922	20.822516
197.042701	-2.970800	3.824600	-11.361000	22.311197	0.000919	20.793952
198.040326	-2.996900	3.824300	-11.460000	22.306103	0.000922	20.821093
199.043922	-3.003100	3.822100	-11.477000	22.321631	0.000922	20.824314
200.041731	-2.996400	3.824100	-11.457000	22.348875	0.000921	20.819826
201.045463	-2.984400	3.823000	-11.409000	22.342058	0.000921	20.820112
202.042462	-3.003900	3.822500	-11.482000	22.355423	0.000921	20.816425
203.048123	-3.006000	3.822600	-11.490000	22.359382	0.000921	20.804743
204.046022	-3.004700	3.821800	-11.483000	22.359856	0.000923	20.831770
205.042938	-3.004800	3.821800	-11.482000	22.370918	0.000924	20.819614
206.046929	-2.995800	3.822800	-11.451000	22.390854	0.000923	20.813025
207.042314	-3.009000	3.822300	-11.500000	22.379294	0.000925	20.837010
208.042803	-3.001700	3.821400	-11.470000	22.394119	0.000926	20.826726
209.046076	-3.003000	3.821600	-11.474000	22.404087	0.000926	20.804466
210.043862	-3.011400	3.820400	-11.503000	22.387245	0.000929	20.843549
211.045307	-3.005500	3.821300	-11.483000	22.416096	0.000929	20.825500
212.049372	-2.998300	3.821100	-11.456000	22.401467	0.000929	20.815118
213.042651	-2.995900	3.821500	-11.448000	22.427916	0.000928	20.817897
214.058722	-2.993500	3.819800	-11.434000	22.423802	0.000929	20.823260
215.054834	-2.993800	3.819900	-11.435000	22.423851	0.000929	20.816671
216.047961	-2.990400	3.820000	-11.421000	22.419892	0.000930	20.812706
217.048605	-2.989300	3.818000	-11.412000	22.418839	0.000930	20.809281
218.048022	-3.000800	3.820600	-11.464000	22.429435	0.000930	20.816573
219.048533	-2.996200	3.818800	-11.441000	22.436161	0.000930	20.813352
220.046173	-2.982300	3.819500	-11.390000	22.440578	0.000932	20.815878
221.050882	-3.002600	3.817800	-11.463000	22.443116	0.000931	20.805144
222.046014	-2.989500	3.818400	-11.414000	22.467484	0.000932	20.813899
223.048956	-2.989600	3.818300	-11.414000	22.452488	0.000933	20.795563
224.051608	-2.995400	3.817700	-11.435000	22.443394	0.000932	20.803999
225.048021	-3.001400	3.817200	-11.456000	22.453492	0.000935	20.791352
226.045828	-3.020200	3.816500	-11.526000	22.453190	0.000935	20.819499
227.046946	-3.006300	3.816100	-11.472000	22.431059	0.000933	20.811561
228.047812	-3.028800	3.814900	-11.554000	22.435467	0.000936	20.820243
229.047655	-3.025100	3.815200	-11.540000	22.441875	0.000935	20.797737
230.049227	-3.013600	3.816600	-11.501000	22.481630	0.000937	20.809100
231.045806	-3.009300	3.815800	-11.482000	22.479336	0.000935	20.805855
232.054220	-3.014100	3.815400	-11.498000	22.494389	0.000938	20.803386
233.049791	-3.011600	3.815400	-11.488000	22.511637	0.000937	20.801219
234.054795	-3.005900	3.815800	-11.470000	22.529048	0.000939	20.805381
235.051746	-2.993900	3.814600	-11.419000	22.533562	0.000936	20.801367
236.059478	-2.996300	3.815000	-11.430000	22.512984	0.000941	20.799723
237.052372	-3.006700	3.814700	-11.469000	22.537798	0.000941	20.788066
238.052340	-3.003700	3.814100	-11.455000	22.544451	0.000940	20.811324
239.055817	-3.010900	3.814900	-11.485000	22.563143	0.000939	20.793061
240.052018	-3.002600	3.814900	-11.454000	22.567934	0.000942	20.795488
241.054122	-3.004800	3.813400	-11.458000	22.582284	0.000941	20.817921
242.054391	-2.999700	3.813300	-11.437000	22.589344	0.000942	20.798914
243.054324	-3.018800	3.812400	-11.508000	22.604174	0.000943	20.780102
244.053036	-3.002000	3.813100	-11.446000	22.612606	0.000942	20.794238
245.057132	-3.004900	3.812700	-11.456000	22.620630	0.000944	20.792316
246.054476	-3.003500	3.812000	-11.447000	22.626547	0.000943	20.786863
247.051235	-2.997800	3.812600	-11.427000	22.603293	0.000943	20.796764
248.058885	-2.984600	3.813400	-11.380000	22.621119	0.000944	20.777159
249.051895	-3.001600	3.810800	-11.437000	22.608949	0.000945	20.795791
250.055927	-2.974700	3.813100	-11.341000	22.635566	0.000945	20.802061
251.060114	-2.999000	3.811600	-11.430000	22.637337	0.000944	20.796248
252.053567	-2.982000	3.812300	-11.367000	22.665585	0.000946	20.775704
253.053786	-2.999200	3.809600	-11.424000	22.679811	0.000947	20.784264
254.058843	-3.013000	3.809600	-11.476000	22.658745	0.000947	20.773121
255.056603	-2.996700	3.810900	-11.418000	22.675060	0.000949	20.786144
256.053926	-2.999800	3.809900	-11.428000	22.679998	0.000948	20.797728
257.061236	-3.003600	3.810500	-11.444000	22.673591	0.000947	20.784198
258.056142	-2.989500	3.809100	-11.387000	22.641475	0.000949	20.770995
259.059540	-2.999100	3.809200	-11.422000	22.662802	0.000948	20.771494
260.058462	-3.007700	3.808500	-11.454000	22.666099	0.000949	20.778116
261.059995	-2.991300	3.808500	-11.391000	22.685352	0.000952	20.779857
262.053556	-2.994200	3.807600	-11.399000	22.703593	0.000947	20.763989
263.060290	-3.006800	3.809000	-11.451000	22.693799	0.000951	20.776938
264.056352	-2.993900	3.809600	-11.405000	22.654958	0.000952	20.786397
265.058949	-2.993200	3.808200	-11.398000	22.663879	0.000951	20.756451
266.059917	-3.004300	3.806400	-11.434000	22.681753	0.000953	20.780994
267.057828	-3.000300	3.807300	-11.422000	22.675934	0.000952	20.786070
268.060493	-3.010400	3.807500	-11.461000	22.700826	0.000952	20.795831
269.058866	-2.995300	3.806600	-11.401000	22.701047	0.000953	20.759067
270.057885	-2.995000	3.806900	-11.401000	22.689620	0.000955	20.777968
271.058105	-3.021500	3.804700	-11.494000	22.674717	0.000954	20.772524
272.069711	-3.043100	3.804200	-11.574000	22.665470	0.000954	20.766106
