LabVIEW Measurement	
Writer_Version	2
Reader_Version	2
Separator	Tab
Decimal_Separator	.
Multi_Headings	No
X_Columns	One
Time_Pref	Absolute
Operator	admin
Description	Clolumns are: time, Current, Voltage, Power, Battery Temp, and Chamber Temp
Date	2024/08/16
Time	13:06:06.104549407958984375
***End_of_Header***	
	
Channels	6						
Samples	1	1	1	1	1	1	
Date	2024/09/04	2024/09/04	2024/09/04	2024/09/04	2024/09/04	2024/09/04	
Time	09:22:59.7472624778747558594	09:22:59.754283905029296875	09:22:59.7602825164794921875	09:22:59.7314920425415039063	09:22:59.7314920425415039063	09:22:59.7314920425415039063	
X_Dimension	Time	Time	Time	Time	Time	Time	
X0	0.0000000000000000E+0	0.0000000000000000E+0	0.0000000000000000E+0	0.0000000000000000E+0	0.0000000000000000E+0	0.0000000000000000E+0	
Delta_X	1.000000	1.000000	1.000000	1.000000	1.000000	1.000000	
***End_of_Header***							
X_Value	Untitled	Untitled 1	Untitled 2	Untitled 3	Untitled 4	Untitled 5	Comment
0.000000	0.023155	4.102400	0.094979	20.926260	0.000923	20.722853
1.001438	-2.993100	3.932800	-11.770000	20.919001	0.000924	20.751156
2.004481	-3.028200	3.925800	-11.886000	20.928712	0.000921	20.733367
3.001552	-3.002800	3.920700	-11.772000	20.931451	0.000921	20.741796
4.001221	-3.015700	3.917200	-11.812000	20.927012	0.000920	20.745417
5.004985	-3.002000	3.913700	-11.748000	20.950970	0.000918	20.722436
6.003641	-2.995200	3.912000	-11.716000	20.939044	0.000916	20.739433
7.004605	-3.001000	3.909100	-11.731000	20.945461	0.000917	20.742532
8.012177	-3.004400	3.906200	-11.735000	20.951477	0.000918	20.746652
9.006825	-2.985900	3.905800	-11.662000	20.948256	0.000917	20.753388
10.004941	-3.010100	3.901300	-11.742000	20.950431	0.000916	20.729009
11.007279	-3.002200	3.901800	-11.713000	20.939649	0.000917	20.748099
12.005980	-3.001600	3.899100	-11.702000	20.941995	0.000916	20.740013
13.006121	-3.003800	3.896900	-11.704000	20.954224	0.000913	20.760305
14.010138	-3.016600	3.896100	-11.752000	20.962283	0.000913	20.720000
15.004521	-2.988200	3.895100	-11.638000	20.976882	0.000913	20.751672
16.003269	-3.011600	3.893400	-11.725000	20.973228	0.000912	20.740905
17.006615	-2.990800	3.893800	-11.645000	20.971291	0.000911	20.759356
18.004770	-3.019900	3.890900	-11.749000	20.980584	0.000911	20.752056
19.003513	-3.012900	3.891400	-11.724000	20.976244	0.000911	20.739179
20.008047	-2.995100	3.890500	-11.652000	20.997046	0.000909	20.755718
21.005309	-2.992300	3.890200	-11.639000	20.995991	0.000910	20.763673
22.007575	-3.020900	3.886500	-11.739000	20.996220	0.000911	20.754418
23.008991	-2.982700	3.888300	-11.597000	20.996392	0.000908	20.756487
24.009389	-2.997000	3.886100	-11.645000	21.006061	0.000909	20.765684
25.009987	-2.993200	3.885600	-11.630000	21.025719	0.000910	20.751205
26.010393	-2.997100	3.884800	-11.641000	21.001026	0.000910	20.738836
27.008547	-3.000300	3.885100	-11.654000	21.024844	0.000907	20.756021
28.009634	-3.003400	3.883200	-11.661000	21.044476	0.000907	20.761433
29.010422	-2.978200	3.883800	-11.565000	21.051260	0.000906	20.751622
30.009950	-3.014000	3.883400	-11.704000	21.054824	0.000906	20.764196
31.009418	-2.991000	3.883900	-11.616000	21.035510	0.000908	20.755309
32.011934	-3.013900	3.880900	-11.696000	21.055518	0.000905	20.752088
33.010850	-2.981300	3.882300	-11.573000	21.075943	0.000907	20.765880
34.010124	-3.005200	3.879600	-11.658000	21.066961	0.000906	20.766853
35.013038	-3.007900	3.879300	-11.667000	21.086691	0.000904	20.779475
36.010985	-2.977400	3.879900	-11.550000	21.065956	0.000903	20.752570
37.011914	-2.970000	3.881200	-11.526000	21.085636	0.000903	20.758506
38.013791	-3.015800	3.878600	-11.696000	21.101753	0.000901	20.740487
39.012389	-2.993200	3.879900	-11.612000	21.107483	0.000902	20.766133
40.011681	-2.997100	3.876900	-11.617000	21.129410	0.000903	20.746341
41.018737	-2.982700	3.877800	-11.566000	21.118851	0.000902	20.756167
42.012070	-3.013200	3.875300	-11.676000	21.106306	0.000902	20.764482
43.011345	-2.994900	3.875200	-11.604000	21.129623	0.000901	20.773107
44.014099	-2.987100	3.876400	-11.578000	21.129721	0.000901	20.779369
45.010601	-2.986600	3.875700	-11.575000	21.167282	0.000901	20.780432
46.011032	-2.998900	3.874000	-11.616000	21.157173	0.000902	20.759413
47.015318	-3.006200	3.875600	-11.650000	21.158170	0.000899	20.763730
48.012873	-2.989800	3.874500	-11.583000	21.161782	0.000899	20.773033
49.016208	-2.980400	3.874400	-11.547000	21.171638	0.000898	20.780996
50.016377	-3.007700	3.873200	-11.649000	21.171360	0.000898	20.784511
51.011856	-2.998100	3.873400	-11.613000	21.176942	0.000896	20.767809
52.012181	-3.005800	3.872000	-11.638000	21.199040	0.000898	20.769052
53.015816	-2.985800	3.873600	-11.565000	21.187762	0.000897	20.768676
54.014937	-3.005800	3.872200	-11.639000	21.211183	0.000898	20.780252
55.013634	-3.003800	3.871000	-11.625000	21.212532	0.000899	20.778281
56.018153	-3.011700	3.871200	-11.658000	21.216740	0.000896	20.786759
57.017881	-3.015300	3.870300	-11.669000	21.237522	0.000897	20.783841
58.015624	-3.011000	3.869500	-11.650000	21.256701	0.000898	20.769836
59.017862	-3.005300	3.869600	-11.629000	21.252280	0.000897	20.783906
60.017541	-2.992200	3.868800	-11.576000	21.249584	0.000898	20.773147
61.015378	-2.996100	3.869400	-11.593000	21.287868	0.000896	20.792956
62.022351	-3.007000	3.868200	-11.630000	21.262381	0.000898	20.791640
63.017226	-3.018400	3.868300	-11.674000	21.279664	0.000896	20.790912
64.015315	-3.005600	3.868700	-11.627000	21.288244	0.000896	20.761089
65.018569	-2.988600	3.867300	-11.556000	21.288514	0.000894	20.783644
66.015693	-3.001300	3.869500	-11.611000	21.311958	0.000896	20.797141
67.017633	-3.011100	3.867000	-11.643000	21.310332	0.000895	20.797411
68.018489	-2.972500	3.868500	-11.499000	21.324329	0.000895	20.780121
69.019631	-2.985700	3.868200	-11.547000	21.326691	0.000894	20.779639
70.020568	-2.991700	3.867100	-11.568000	21.321927	0.000896	20.807115
71.018749	-3.007900	3.866700	-11.628000	21.343532	0.000896	20.790798
72.020535	-2.990200	3.866600	-11.560000	21.336276	0.000895	20.788280
73.020247	-3.001500	3.867100	-11.606000	21.338932	0.000895	20.773393
74.020830	-2.984600	3.866900	-11.540000	21.348639	0.000895	20.793062
75.020123	-2.990600	3.865000	-11.558000	21.346711	0.000895	20.777856
76.022043	-3.005200	3.865800	-11.615000	21.364695	0.000895	20.794427
77.020545	-2.990800	3.865100	-11.559000	21.363649	0.000895	20.787217
78.020039	-2.992800	3.865100	-11.566000	21.388465	0.000896	20.790708
79.020681	-3.006200	3.864000	-11.615000	21.399332	0.000896	20.788778
80.022038	-3.007600	3.863500	-11.619000	21.378259	0.000896	20.809420
81.021594	-2.993700	3.863300	-11.564000	21.379174	0.000896	20.793267
82.022019	-2.986700	3.863400	-11.539000	21.412814	0.000895	20.822181
83.022121	-2.993000	3.863500	-11.562000	21.408426	0.000895	20.797877
84.021693	-2.996300	3.863600	-11.575000	21.431696	0.000895	20.810728
85.022046	-2.994900	3.863500	-11.570000	21.432276	0.000895	20.796610
86.023022	-3.007500	3.862900	-11.617000	21.431075	0.000895	20.795408
87.022774	-3.001800	3.862300	-11.592000	21.433583	0.000894	20.795073
88.022354	-3.011600	3.862700	-11.631000	21.453242	0.000895	20.793406
89.026245	-3.002200	3.862800	-11.595000	21.467703	0.000897	20.796970
90.025675	-2.980700	3.861400	-11.508000	21.483660	0.000897	20.805824
91.023520	-2.981200	3.863400	-11.517000	21.465309	0.000894	20.812592
92.022404	-2.974200	3.862100	-11.486000	21.508072	0.000897	20.808440
93.023923	-2.974100	3.862700	-11.487000	21.480163	0.000895	20.807066
94.023726	-3.002100	3.860800	-11.590000	21.486046	0.000895	20.801098
95.023884	-2.953400	3.862300	-11.406000	21.494886	0.000895	20.818004
96.024006	-3.004000	3.860700	-11.596000	21.527100	0.000894	20.809936
97.027761	-3.001100	3.860500	-11.585000	21.515564	0.000898	20.806453
98.032286	-2.993700	3.860600	-11.556000	21.522549	0.000894	20.816762
99.028334	-2.991300	3.860000	-11.545000	21.529363	0.000895	20.818364
100.026676	-3.017200	3.858300	-11.641000	21.539388	0.000897	20.815119
101.027613	-3.032300	3.858000	-11.697000	21.557769	0.000896	20.819288
102.027667	-3.008300	3.859600	-11.608000	21.580007	0.000898	20.820677
103.028488	-3.006800	3.859000	-11.602000	21.581862	0.000896	20.801671
104.027873	-2.989700	3.858700	-11.536000	21.585538	0.000896	20.796341
105.029248	-2.991000	3.858800	-11.540000	21.570449	0.000897	20.817751
106.027376	-3.010200	3.858800	-11.615000	21.586012	0.000897	20.801556
107.029045	-3.004600	3.858800	-11.593000	21.589451	0.000896	20.806420
108.029558	-2.999900	3.857900	-11.571000	21.599500	0.000898	20.806993
109.029628	-2.995100	3.858000	-11.554000	21.583079	0.000897	20.834182
110.032693	-3.022300	3.856800	-11.653000	21.617145	0.000897	20.817538
111.031758	-3.010600	3.856900	-11.610000	21.636874	0.000896	20.803142
112.030539	-2.997900	3.856900	-11.561000	21.622104	0.000898	20.829613
113.030074	-2.987700	3.856900	-11.521000	21.629260	0.000898	20.825869
114.034043	-2.996200	3.856100	-11.552000	21.653122	0.000898	20.822721
115.030797	-2.995000	3.857500	-11.552000	21.655638	0.000899	20.826662
116.033298	-3.005900	3.855700	-11.589000	21.670694	0.000897	20.818021
117.033294	-3.003000	3.854000	-11.572000	21.686288	0.000898	20.828885
118.038906	-3.015400	3.854700	-11.622000	21.688779	0.000900	20.809568
119.034448	-3.012100	3.855300	-11.612000	21.692995	0.000898	20.806674
120.034510	-3.020400	3.854900	-11.642000	21.692145	0.000899	20.809617
121.034732	-3.008400	3.854200	-11.593000	21.709871	0.000896	20.833995
122.037722	-3.016900	3.853400	-11.624000	21.708082	0.000898	20.832204
123.034694	-3.006700	3.854100	-11.587000	21.703892	0.000899	20.834649
124.034955	-3.005000	3.854000	-11.579000	21.714797	0.000900	20.827070
125.036653	-3.001900	3.853300	-11.566000	21.722124	0.000899	20.826817
126.035817	-3.004200	3.854200	-11.577000	21.735863	0.000899	20.823498
127.034647	-2.995700	3.853500	-11.543000	21.759306	0.000900	20.816615
128.035622	-3.000400	3.853800	-11.562000	21.737685	0.000902	20.824373
129.035704	-3.019500	3.852600	-11.632000	21.760254	0.000901	20.836529
130.041463	-3.038600	3.852000	-11.704000	21.757117	0.000902	20.837657
131.037382	-2.999800	3.852500	-11.556000	21.778363	0.000903	20.839006
132.035882	-2.993500	3.851700	-11.529000	21.786392	0.000900	20.821912
133.041505	-3.000500	3.853200	-11.560000	21.758171	0.000900	20.834444
134.041645	-3.001700	3.853000	-11.563000	21.804794	0.000901	20.804295
135.037607	-2.980300	3.852700	-11.482000	21.757918	0.000905	20.847941
136.040413	-2.975800	3.853000	-11.464000	21.799812	0.000905	20.827283
137.039229	-3.007400	3.851600	-11.582000	21.787813	0.000905	20.837084
138.040601	-2.998200	3.851000	-11.544000	21.815739	0.000904	20.825206
139.040202	-2.998400	3.850600	-11.545000	21.819758	0.000905	20.819271
140.041478	-2.987400	3.852300	-11.506000	21.828277	0.000904	20.823531
141.039857	-2.998500	3.851600	-11.548000	21.807637	0.000905	20.820416
142.040509	-2.987300	3.850800	-11.503000	21.822396	0.000905	20.820964
143.040294	-2.988700	3.849900	-11.505000	21.802278	0.000905	20.844924
144.040843	-2.982800	3.849800	-11.482000	21.823817	0.000906	20.821438
145.040040	-2.997600	3.849500	-11.538000	21.830850	0.000905	20.824209
146.040287	-2.996700	3.848700	-11.530000	21.819456	0.000906	20.813753
147.040211	-2.999800	3.850400	-11.550000	21.849366	0.000906	20.826147
148.041437	-2.981600	3.849700	-11.477000	21.844490	0.000908	20.825533
149.040871	-3.011900	3.849500	-11.594000	21.868968	0.000906	20.814473
150.040877	-2.992900	3.849100	-11.519000	21.889190	0.000909	20.796308
151.042078	-2.988100	3.849400	-11.501000	21.873207	0.000907	20.798327
152.042902	-2.985200	3.849200	-11.490000	21.880533	0.000906	20.810402
153.041870	-2.998400	3.847700	-11.536000	21.888169	0.000909	20.808088
154.045068	-3.019400	3.848100	-11.618000	21.885368	0.000909	20.815241
155.041781	-3.009500	3.847900	-11.579000	21.915342	0.000908	20.805415
156.042635	-2.999600	3.848000	-11.541000	21.927012	0.000909	20.820416
157.042263	-3.001200	3.846900	-11.544000	21.926457	0.000909	20.810377
158.043635	-3.013700	3.847300	-11.594000	21.947601	0.000911	20.829645
159.042757	-3.008800	3.847200	-11.574000	21.960366	0.000910	20.829147
160.043545	-3.022300	3.845800	-11.621000	21.959288	0.000912	20.798196
161.043759	-3.024700	3.845300	-11.630000	21.953057	0.000909	20.803813
162.047966	-3.018400	3.845800	-11.607000	21.971187	0.000910	20.836185
163.043725	-3.006500	3.846400	-11.563000	21.981575	0.000911	20.807230
164.044349	-3.028200	3.845100	-11.643000	21.992322	0.000911	20.793332
165.045333	-2.988200	3.845000	-11.489000	21.977663	0.000912	20.801892
166.044389	-2.998000	3.845000	-11.526000	21.981306	0.000912	20.810279
167.045313	-2.977400	3.846200	-11.450000	21.985610	0.000911	20.801785
168.045681	-2.987600	3.845300	-11.487000	21.974397	0.000911	20.810949
169.045761	-3.000600	3.845500	-11.537000	21.999427	0.000913	20.796651
170.046750	-2.982800	3.845600	-11.470000	21.999705	0.000913	20.804990
171.049538	-2.976100	3.846100	-11.445000	21.991302	0.000913	20.780931
172.047545	-3.004600	3.844500	-11.550000	22.017132	0.000914	20.805366
173.047196	-2.999000	3.844100	-11.528000	22.036772	0.000916	20.816492
174.049903	-2.992800	3.844700	-11.505000	22.053105	0.000913	20.794910
175.049573	-3.004100	3.842800	-11.542000	22.058168	0.000915	20.800453
176.050258	-3.003400	3.844200	-11.545000	22.067616	0.000914	20.809437
177.054266	-2.982000	3.843700	-11.461000	22.081326	0.000916	20.791869
178.049278	-3.000100	3.843200	-11.529000	22.080657	0.000915	20.782190
179.050343	-3.008500	3.843000	-11.560000	22.086185	0.000917	20.803371
180.053743	-2.971600	3.843700	-11.421000	22.107473	0.000918	20.780113
181.051613	-3.021800	3.841100	-11.606000	22.116840	0.000917	20.785223
182.052398	-2.991500	3.842500	-11.494000	22.106183	0.000918	20.792098
183.056834	-2.988500	3.842800	-11.482000	22.120530	0.000918	20.806936
184.050973	-2.990000	3.843100	-11.490000	22.104583	0.000918	20.787176
185.052701	-3.008400	3.841700	-11.556000	22.095388	0.000920	20.777497
186.055765	-2.983600	3.842200	-11.462000	22.126565	0.000920	20.781683
187.050027	-3.005600	3.841700	-11.546000	22.109597	0.000919	20.769910
188.054897	-2.999000	3.840200	-11.516000	22.122637	0.000921	20.785811
189.061382	-2.987600	3.840400	-11.473000	22.140405	0.000921	20.785108
190.052014	-3.002200	3.840100	-11.528000	22.147028	0.000923	20.795531
191.056818	-3.004400	3.840200	-11.535000	22.141573	0.000922	20.790545
192.054409	-2.996300	3.840000	-11.504000	22.143606	0.000922	20.794477
193.051464	-3.001800	3.838100	-11.520000	22.129872	0.000924	20.795425
194.056085	-3.001600	3.839700	-11.524000	22.123470	0.000926	20.784274
195.058876	-3.008400	3.838200	-11.545000	22.157014	0.000924	20.764278
196.052634	-3.008300	3.840100	-11.551000	22.152809	0.000926	20.771922
197.054705	-2.970300	3.839100	-11.401000	22.131799	0.000927	20.800673
198.057568	-2.992200	3.838400	-11.484000	22.146375	0.000926	20.781601
199.053723	-3.007000	3.838500	-11.541000	22.148563	0.000926	20.794223
200.056542	-3.008800	3.837200	-11.544000	22.128321	0.000927	20.770164
201.058838	-3.004600	3.837800	-11.529000	22.160256	0.000928	20.766575
202.056200	-2.998000	3.839100	-11.508000	22.173165	0.000925	20.765749
203.058342	-2.998300	3.838500	-11.508000	22.178154	0.000927	20.759839
204.060570	-3.015900	3.837700	-11.573000	22.179354	0.000926	20.752505
205.057673	-2.986800	3.837800	-11.462000	22.208087	0.000926	20.780326
206.062324	-2.994200	3.836600	-11.486000	22.221919	0.000928	20.760035
207.062224	-3.024000	3.835300	-11.596000	22.189643	0.000928	20.758064
208.059219	-3.016700	3.836700	-11.573000	22.221478	0.000930	20.773818
209.060525	-2.963100	3.838000	-11.371000	22.216244	0.000932	20.760517
210.061418	-2.996500	3.835900	-11.494000	22.233342	0.000933	20.781903
211.057000	-3.000700	3.835800	-11.509000	22.234664	0.000930	20.769003
212.058966	-2.997700	3.835500	-11.497000	22.252961	0.000933	20.762667
213.061023	-2.988300	3.835300	-11.460000	22.244380	0.000931	20.765929
214.057049	-3.029600	3.833900	-11.614000	22.266278	0.000934	20.782639
215.059509	-3.002800	3.834800	-11.514000	22.269438	0.000935	20.779165
216.060372	-2.977800	3.834900	-11.419000	22.278411	0.000933	20.792891
217.059856	-3.013900	3.835800	-11.560000	22.272434	0.000932	20.782165
218.060589	-3.001700	3.834100	-11.508000	22.272524	0.000934	20.751908
219.063747	-3.002800	3.834800	-11.514000	22.267192	0.000935	20.757476
220.058969	-3.000700	3.834100	-11.503000	22.289228	0.000935	20.752039
221.057885	-3.024900	3.832800	-11.593000	22.307615	0.000935	20.752906
222.060030	-3.001400	3.834200	-11.507000	22.321029	0.000935	20.755432
223.058624	-2.992700	3.833900	-11.472000	22.305206	0.000936	20.751442
224.060940	-2.999200	3.833200	-11.494000	22.320294	0.000935	20.757067
225.061110	-2.981600	3.833300	-11.428000	22.302732	0.000937	20.758923
226.058877	-2.986400	3.832200	-11.443000	22.296454	0.000935	20.745523
227.062749	-3.005800	3.831600	-11.515000	22.305623	0.000936	20.759446
228.060523	-3.021100	3.831000	-11.572000	22.332818	0.000938	20.766763
229.062058	-2.995300	3.832300	-11.478000	22.335561	0.000939	20.761449
230.062006	-3.008900	3.831900	-11.529000	22.325935	0.000940	20.733317
231.059308	-3.014400	3.831600	-11.549000	22.343562	0.000940	20.781315
232.059088	-2.987800	3.831500	-11.446000	22.365563	0.000939	20.762569
233.063035	-2.980600	3.831600	-11.420000	22.374095	0.000939	20.747404
234.060269	-2.986200	3.831900	-11.442000	22.387769	0.000939	20.744501
235.061536	-2.982500	3.832000	-11.427000	22.387940	0.000940	20.744199
236.061269	-2.983700	3.830600	-11.428000	22.361032	0.000940	20.766093
237.060451	-2.997200	3.829800	-11.477000	22.379997	0.000942	20.763272
238.059595	-3.010400	3.830700	-11.531000	22.378732	0.000940	20.754892
239.063139	-3.009900	3.830400	-11.528000	22.407011	0.000941	20.750020
240.060506	-3.009700	3.829500	-11.525000	22.415395	0.000941	20.733285
241.062158	-3.011600	3.830500	-11.533000	22.442228	0.000942	20.762528
242.062950	-3.010100	3.826900	-11.518000	22.447934	0.000942	20.758759
243.062843	-3.000800	3.828900	-11.489000	22.454481	0.000943	20.756781
244.063525	-3.005300	3.828800	-11.506000	22.446489	0.000945	20.736923
245.064789	-2.985300	3.829900	-11.433000	22.468864	0.000944	20.738468
246.062077	-2.995200	3.828300	-11.466000	22.447885	0.000944	20.742114
247.064093	-3.003200	3.828700	-11.498000	22.477313	0.000945	20.752620
248.064512	-3.010900	3.828000	-11.525000	22.451526	0.000949	20.741493
249.064179	-2.993000	3.828000	-11.457000	22.459379	0.000947	20.729916
250.065082	-3.003600	3.828000	-11.497000	22.423468	0.000948	20.714816
251.066390	-2.996100	3.828000	-11.468000	22.451158	0.000948	20.725003
252.068070	-3.015100	3.826800	-11.538000	22.465811	0.000950	20.743945
253.063837	-3.006200	3.825900	-11.499000	22.442105	0.000951	20.733481
254.066154	-2.998100	3.827500	-11.474000	22.423631	0.000948	20.741534
255.067225	-3.027000	3.823700	-11.573000	22.447950	0.000951	20.735067
256.065379	-2.989800	3.825400	-11.436000	22.463403	0.000950	20.740585
257.069097	-3.013400	3.824800	-11.525000	22.481093	0.000951	20.725109
258.069700	-2.979700	3.826900	-11.403000	22.490660	0.000952	20.757925
259.066119	-2.975400	3.824300	-11.378000	22.521752	0.000951	20.730742
260.068921	-2.979700	3.825200	-11.396000	22.517997	0.000952	20.757803
261.069417	-3.004700	3.824800	-11.490000	22.515655	0.000951	20.755930
262.066132	-2.993800	3.824800	-11.450000	22.527050	0.000954	20.749799
263.067058	-2.985200	3.825900	-11.420000	22.510349	0.000955	20.735443
264.068754	-3.004500	3.824200	-11.489000	22.526274	0.000956	20.719623
265.067625	-2.987700	3.825300	-11.426000	22.544044	0.000955	20.743111
266.070457	-3.014300	3.824700	-11.529000	22.556900	0.000956	20.730856
267.073390	-3.003600	3.823100	-11.482000	22.569332	0.000955	20.726237
268.070120	-3.026100	3.822500	-11.566000	22.556411	0.000958	20.754075
269.071385	-3.001500	3.823000	-11.473000	22.562116	0.000958	20.724226
270.071829	-3.005200	3.823400	-11.489000	22.575200	0.000956	20.743021
271.070374	-3.012400	3.822300	-11.513000	22.599116	0.000958	20.721454
272.070744	-3.022400	3.822100	-11.551000	22.591337	0.000958	20.738321
