LabVIEW Measurement	
Writer_Version	2
Reader_Version	2
Separator	Tab
Decimal_Separator	.
Multi_Headings	No
X_Columns	One
Time_Pref	Absolute
Operator	admin
Description	Clolumns are: time, Current, Voltage, Power, Battery Temp, and Chamber Temp
Date	2024/08/16
Time	13:06:06.104549407958984375
***End_of_Header***	
	
Channels	6						
Samples	1	1	1	1	1	1	
Date	2024/09/19	2024/09/19	2024/09/19	2024/09/19	2024/09/19	2024/09/19	
Time	04:59:39.0898432731628417969	04:59:39.0953702926635742188	04:59:39.105224609375	04:59:39.073070526123046875	04:59:39.073070526123046875	04:59:39.073070526123046875	
X_Dimension	Time	Time	Time	Time	Time	Time	
X0	0.0000000000000000E+0	0.0000000000000000E+0	0.0000000000000000E+0	0.0000000000000000E+0	0.0000000000000000E+0	0.0000000000000000E+0	
Delta_X	1.000000	1.000000	1.000000	1.000000	1.000000	1.000000	
***End_of_Header***							
X_Value	Untitled	Untitled 1	Untitled 2	Untitled 3	Untitled 4	Untitled 5	Comment
0.000000	0.001356	4.090300	0.005501	20.974244	0.001002	20.706831
0.997792	-3.002400	3.905200	-11.723000	20.975292	0.001003	20.720683
2.000088	-2.993800	3.897800	-11.668000	20.978810	0.001000	20.707605
2.999109	-3.003500	3.891400	-11.688000	20.991336	0.001000	20.722505
3.998248	-3.004300	3.887700	-11.679000	20.969478	0.001000	20.707755
5.001419	-2.983900	3.885600	-11.593000	20.975492	0.000999	20.711873
6.000773	-3.009700	3.880900	-11.679000	20.976540	0.000999	20.711025
7.001816	-3.018200	3.878100	-11.704000	20.994131	0.000998	20.718187
8.002154	-2.995000	3.876500	-11.609000	20.970152	0.000996	20.707954
9.000606	-3.008500	3.873000	-11.650000	20.979084	0.000994	20.724950
10.000065	-2.994700	3.872100	-11.595000	20.987394	0.000993	20.701491
11.002881	-2.995900	3.869600	-11.591000	21.009550	0.000992	20.712272
12.000670	-2.991400	3.869600	-11.574000	20.986720	0.000991	20.708878
13.001897	-2.991500	3.868500	-11.571000	21.006706	0.000993	20.703737
14.003930	-2.980500	3.865400	-11.520000	21.006780	0.000990	20.704285
15.001426	-2.995000	3.864800	-11.574000	20.998696	0.000989	20.726073
16.002450	-2.997800	3.864300	-11.581000	21.011122	0.000991	20.717164
17.004141	-2.982900	3.862900	-11.521000	21.019181	0.000989	20.713845
18.003469	-3.005800	3.861100	-11.604000	21.021801	0.000990	20.719310
19.003401	-3.021800	3.858000	-11.657000	21.030210	0.000989	20.706857
20.003992	-3.002200	3.859500	-11.586000	21.044481	0.000989	20.734883
21.003610	-2.979400	3.859600	-11.498000	21.032380	0.000988	20.704760
22.002749	-3.004800	3.857700	-11.590000	21.046153	0.000989	20.717114
23.002635	-2.998500	3.856800	-11.563000	21.052839	0.000986	20.723328
24.001161	-2.993300	3.855600	-11.539000	21.065064	0.000987	20.733186
25.002946	-3.006000	3.854600	-11.586000	21.065963	0.000989	20.706108
26.002337	-3.014400	3.854000	-11.617000	21.060798	0.000988	20.697622
27.003097	-3.013500	3.854000	-11.613000	21.105832	0.000987	20.720857
28.001681	-3.015300	3.851300	-11.611000	21.070629	0.000985	20.715991
29.002018	-3.001300	3.852000	-11.560000	21.110522	0.000987	20.727921
30.002250	-3.022200	3.851500	-11.638000	21.101016	0.000987	20.712247
31.003270	-3.010400	3.849800	-11.589000	21.128335	0.000987	20.724875
32.003283	-3.002300	3.850400	-11.558000	21.142456	0.000985	20.733311
33.003158	-3.015300	3.850400	-11.609000	21.135396	0.000986	20.719136
34.003846	-2.995400	3.848700	-11.528000	21.135421	0.000986	20.720109
35.002237	-3.001200	3.849700	-11.552000	21.145025	0.000984	20.708379
36.005809	-2.985200	3.847900	-11.486000	21.148818	0.000985	20.720234
37.003661	-3.018100	3.846300	-11.608000	21.167154	0.000985	20.730516
38.003878	-3.007800	3.847300	-11.571000	21.167379	0.000984	20.749233
39.005925	-2.992200	3.847200	-11.511000	21.168302	0.000985	20.726922
40.004658	-2.987900	3.846600	-11.492000	21.180451	0.000985	20.720108
41.006551	-2.987000	3.847100	-11.490000	21.198412	0.000984	20.742345
42.004573	-3.021400	3.844100	-11.612000	21.194446	0.000983	20.708978
43.004693	-2.979800	3.846600	-11.461000	21.201755	0.000983	20.739051
44.009778	-2.989800	3.844400	-11.493000	21.217596	0.000984	20.732137
45.005011	-2.977500	3.844000	-11.444000	21.229545	0.000984	20.728443
46.007106	-2.995500	3.844100	-11.514000	21.225978	0.000982	20.712546
47.007870	-2.982900	3.843600	-11.464000	21.246858	0.000984	20.747186
48.012437	-3.000500	3.843200	-11.531000	21.244039	0.000984	20.732986
49.008508	-3.006200	3.843000	-11.552000	21.265517	0.000984	20.743093
50.007176	-3.011500	3.842000	-11.568000	21.254766	0.000983	20.721905
51.008641	-3.016900	3.840500	-11.584000	21.260079	0.000982	20.708727
52.008428	-3.014300	3.839700	-11.574000	21.285099	0.000984	20.721430
53.011905	-3.020800	3.840900	-11.602000	21.297521	0.000983	20.723427
54.011889	-3.017600	3.838600	-11.580000	21.307948	0.000982	20.731014
55.009797	-2.992300	3.841800	-11.495000	21.304805	0.000982	20.717911
56.010056	-2.993900	3.839300	-11.494000	21.309020	0.000981	20.723077
57.011045	-3.007600	3.838800	-11.545000	21.325658	0.000981	20.729765
58.006912	-2.992000	3.838600	-11.484000	21.319147	0.000984	20.733209
59.007629	-3.012300	3.837500	-11.557000	21.359631	0.000983	20.729141
60.012341	-3.004700	3.838200	-11.532000	21.366715	0.000982	20.727693
61.008453	-2.999500	3.837100	-11.509000	21.367538	0.000984	20.738949
62.010476	-3.001100	3.837500	-11.516000	21.378737	0.000985	20.739722
63.014471	-3.025100	3.835500	-11.601000	21.379585	0.000983	20.740571
64.010019	-2.980800	3.837600	-11.438000	21.398341	0.000980	20.761708
65.015735	-2.999300	3.836600	-11.506000	21.415851	0.000982	20.731811
66.011307	-2.987400	3.835900	-11.457000	21.410163	0.000984	20.732284
67.011685	-2.968300	3.835900	-11.384000	21.400560	0.000984	20.749230
68.012774	-2.996100	3.833500	-11.485000	21.413980	0.000983	20.739422
69.013170	-2.999200	3.835100	-11.502000	21.417546	0.000984	20.755793
70.012528	-2.980000	3.834600	-11.427000	21.417795	0.000983	20.745610
71.011880	-3.001300	3.833800	-11.505000	21.445456	0.000983	20.750053
72.015741	-2.989100	3.834400	-11.460000	21.452239	0.000983	20.741193
73.011442	-2.986900	3.833200	-11.448000	21.465908	0.000985	20.753447
74.012493	-2.986700	3.832700	-11.446000	21.454583	0.000985	20.741167
75.015828	-2.985800	3.833200	-11.444000	21.478452	0.000983	20.717633
76.014070	-2.991200	3.832000	-11.460000	21.500051	0.000985	20.727392
77.013087	-3.004100	3.831800	-11.510000	21.507383	0.000983	20.735677
78.017078	-2.983400	3.832300	-11.432000	21.527235	0.000983	20.752697
79.013124	-3.001500	3.830000	-11.494000	21.522297	0.000983	20.738747
80.013809	-3.003700	3.829900	-11.501000	21.557312	0.000986	20.724945
81.023867	-2.989700	3.829400	-11.448000	21.511349	0.000984	20.753397
82.015008	-3.014700	3.829000	-11.542000	21.536363	0.000985	20.731010
83.017269	-3.027500	3.828500	-11.588000	21.540927	0.000984	20.747432
84.018949	-3.011800	3.828700	-11.531000	21.540303	0.000986	20.747282
85.014245	-2.995500	3.829100	-11.470000	21.533569	0.000985	20.748130
86.016397	-3.004100	3.829800	-11.503000	21.547985	0.000985	20.737898
87.022350	-3.009700	3.827200	-11.517000	21.557935	0.000988	20.749752
88.016492	-3.010300	3.828600	-11.524000	21.568584	0.000986	20.755193
89.017011	-3.021400	3.827400	-11.564000	21.580779	0.000986	20.757913
90.026921	-3.004900	3.827400	-11.499000	21.594047	0.000986	20.749378
91.021943	-3.017400	3.826300	-11.545000	21.577936	0.000988	20.754120
92.017859	-2.998700	3.826600	-11.473000	21.581951	0.000987	20.743438
93.021027	-3.012500	3.826000	-11.524000	21.603598	0.000987	20.757514
94.020060	-3.005100	3.827100	-11.500000	21.602700	0.000988	20.749503
95.019736	-3.001600	3.827900	-11.488000	21.638511	0.000988	20.754045
96.022833	-3.009300	3.826900	-11.514000	21.629782	0.000987	20.741042
97.019889	-2.991900	3.826500	-11.447000	21.625444	0.000988	20.761832
98.019931	-3.007500	3.825200	-11.503000	21.643697	0.000986	20.767770
99.024174	-3.001500	3.825600	-11.482000	21.663323	0.000987	20.772238
100.027978	-3.012100	3.824300	-11.518000	21.653797	0.000988	20.747057
101.020618	-2.979900	3.824900	-11.396000	21.655767	0.000989	20.751873
102.023824	-2.991100	3.823400	-11.435000	21.699381	0.000989	20.741941
103.020924	-2.999600	3.823200	-11.467000	21.700228	0.000989	20.769343
104.023469	-2.997500	3.824500	-11.463000	21.681526	0.000991	20.752048
105.026192	-2.983500	3.825100	-11.410000	21.723718	0.000990	20.771040
106.031187	-3.005900	3.822500	-11.489000	21.728380	0.000988	20.761955
107.021893	-3.001400	3.822500	-11.472000	21.739228	0.000990	20.761432
108.023501	-2.963900	3.824600	-11.334000	21.730101	0.000989	20.761307
109.021853	-2.990700	3.822500	-11.430000	21.731946	0.000991	20.757463
110.021906	-2.997600	3.822000	-11.456000	21.737706	0.000993	20.779350
111.027678	-3.004400	3.822800	-11.484000	21.738230	0.000989	20.778925
112.026162	-2.995400	3.820700	-11.442000	21.743765	0.000990	20.767396
113.024798	-3.017600	3.820700	-11.527000	21.770894	0.000990	20.775107
114.030641	-2.980600	3.822400	-11.392000	21.766157	0.000991	20.753770
115.028151	-2.996900	3.821100	-11.450000	21.775407	0.000993	20.775356
116.026907	-2.986400	3.820800	-11.408000	21.783311	0.000993	20.764775
117.027930	-2.980400	3.822000	-11.390000	21.787051	0.000993	20.779899
118.036238	-2.983200	3.819500	-11.393000	21.814902	0.000994	20.747555
119.027696	-2.986900	3.819600	-11.407000	21.816722	0.000994	20.780198
120.030014	-2.978000	3.820700	-11.377000	21.826496	0.000994	20.775281
121.030210	-3.002300	3.819000	-11.463000	21.830411	0.000993	20.778251
122.029391	-2.996800	3.818800	-11.443000	21.858485	0.000994	20.775531
123.038222	-3.007700	3.818600	-11.484000	21.873270	0.000994	20.778001
124.032471	-3.007500	3.818500	-11.483000	21.865092	0.000996	20.788782
125.032660	-2.988000	3.818800	-11.409000	21.883567	0.000995	20.790679
126.032203	-3.001400	3.817500	-11.456000	21.880873	0.000996	20.782767
127.035666	-2.976300	3.818200	-11.361000	21.889825	0.000996	20.775606
128.030816	-2.989900	3.818200	-11.414000	21.895260	0.000996	20.764451
129.034998	-2.983300	3.819100	-11.392000	21.907277	0.000998	20.790230
130.030998	-2.992900	3.818200	-11.427000	21.921712	0.000996	20.769117
131.031435	-2.979900	3.819000	-11.379000	21.922983	0.000996	20.760432
132.031369	-2.986600	3.818300	-11.401000	21.904509	0.000997	20.781770
133.032573	-3.019400	3.816600	-11.521000	21.928768	0.000997	20.784715
134.034550	-3.000100	3.815400	-11.446000	21.939762	0.001000	20.780547
135.036625	-3.030400	3.816200	-11.563000	21.910617	0.000999	20.789780
136.033008	-2.994400	3.815100	-11.423000	21.919418	0.001001	20.788633
137.036052	-3.000600	3.815900	-11.447000	21.930288	0.001002	20.783392
138.030782	-3.009200	3.815000	-11.479000	21.933853	0.001000	20.781271
139.033739	-2.996000	3.815900	-11.431000	21.935922	0.001000	20.773858
140.033308	-3.028500	3.814400	-11.551000	21.969005	0.001001	20.791801
141.031217	-3.003800	3.813900	-11.456000	21.962273	0.000999	20.786960
142.032717	-2.993700	3.814700	-11.418000	21.975412	0.001001	20.807225
143.033349	-3.003000	3.813500	-11.451000	22.004355	0.001004	20.795420
144.037316	-2.964300	3.815500	-11.309000	21.998123	0.001001	20.798664
145.034098	-2.994800	3.812700	-11.417000	22.011136	0.001003	20.784190
146.035910	-3.000100	3.813300	-11.440000	22.032176	0.001004	20.790080
147.035110	-3.007700	3.813300	-11.468000	22.016720	0.001002	20.809221
148.035044	-3.023200	3.812100	-11.522000	22.013554	0.001007	20.802733
149.037338	-3.020600	3.811900	-11.513000	22.039431	0.001006	20.791653
150.037007	-2.975900	3.814100	-11.349000	22.056382	0.001005	20.804355
151.037760	-3.010900	3.811500	-11.475000	22.047707	0.001004	20.799463
152.035469	-3.004400	3.813000	-11.455000	22.065032	0.001006	20.799264
153.033895	-2.995400	3.811800	-11.417000	22.103969	0.001005	20.824020
154.037003	-3.017300	3.809400	-11.492000	22.107633	0.001005	20.816783
155.034113	-2.988100	3.812500	-11.390000	22.116607	0.001006	20.797792
156.036249	-3.002100	3.811500	-11.442000	22.123960	0.001006	20.811792
157.034333	-2.988800	3.811000	-11.390000	22.158733	0.001009	20.798241
158.035523	-3.004100	3.810000	-11.443000	22.166660	0.001006	20.799540
159.037123	-3.008700	3.810100	-11.461000	22.172367	0.001007	20.820426
160.036973	-3.002500	3.810700	-11.441000	22.171295	0.001009	20.816034
161.037582	-3.008600	3.808300	-11.457000	22.193180	0.001009	20.788160
162.044255	-2.985300	3.811600	-11.378000	22.197841	0.001011	20.828862
163.039000	-2.982800	3.810100	-11.364000	22.207960	0.001011	20.829036
164.039011	-2.984700	3.810500	-11.371000	22.201579	0.001010	20.807475
165.039125	-3.009800	3.808600	-11.461000	22.200757	0.001009	20.827988
166.038580	-2.982300	3.809400	-11.360000	22.206839	0.001012	20.813688
167.041185	-2.998400	3.807600	-11.416000	22.204172	0.001011	20.824295
168.039893	-2.999100	3.809100	-11.423000	22.221743	0.001014	20.825292
169.040222	-3.008200	3.807100	-11.452000	22.232337	0.001014	20.816933
170.039447	-3.010900	3.807100	-11.460000	22.257535	0.001013	20.793800
171.041611	-2.996600	3.808500	-11.412000	22.248363	0.001012	20.826341
172.048295	-3.004000	3.807100	-11.435000	22.251478	0.001014	20.821400
173.038854	-2.999700	3.807800	-11.421000	22.263691	0.001015	20.821300
174.042952	-2.998000	3.806800	-11.412000	22.283630	0.001014	20.818980
175.041584	-2.976500	3.807600	-11.333000	22.296640	0.001017	20.808299
176.047171	-2.983000	3.807200	-11.356000	22.302970	0.001016	20.817482
177.044751	-2.994800	3.807200	-11.399000	22.281736	0.001017	20.824669
178.045217	-2.980900	3.806800	-11.346000	22.326248	0.001018	20.826566
179.044785	-3.007900	3.805000	-11.445000	22.302048	0.001017	20.808024
180.043820	-2.999600	3.806600	-11.417000	22.309475	0.001018	20.828737
181.044695	-3.008800	3.805300	-11.447000	22.300104	0.001019	20.839268
182.044437	-3.005700	3.804800	-11.435000	22.309849	0.001020	20.821999
183.044334	-3.004100	3.804800	-11.429000	22.331930	0.001019	20.827040
184.043149	-2.994300	3.804000	-11.389000	22.328416	0.001021	20.850547
185.042593	-3.002700	3.802300	-11.416000	22.352216	0.001021	20.824120
186.043993	-3.008700	3.803000	-11.441000	22.337013	0.001020	20.822647
187.044355	-2.985500	3.803800	-11.355000	22.369088	0.001022	20.840540
188.045712	-2.991300	3.803400	-11.375000	22.357849	0.001024	20.839243
189.044604	-3.005300	3.803300	-11.429000	22.354484	0.001022	20.819278
190.047062	-3.009900	3.802300	-11.442000	22.368241	0.001023	20.831157
191.047094	-3.019800	3.801900	-11.479000	22.380776	0.001026	20.839917
192.046244	-2.991700	3.802600	-11.375000	22.407541	0.001023	20.846330
193.045252	-2.995900	3.801700	-11.388000	22.391990	0.001023	20.838344
194.045639	-2.997400	3.801500	-11.394000	22.406071	0.001025	20.839168
195.048086	-2.996100	3.801300	-11.387000	22.426729	0.001027	20.822398
196.047262	-2.988200	3.801300	-11.358000	22.419278	0.001027	20.836747
197.047545	-2.990500	3.800900	-11.365000	22.435975	0.001026	20.831657
198.048210	-3.015300	3.800500	-11.458000	22.418232	0.001027	20.848027
199.048104	-3.017800	3.799600	-11.464000	22.463910	0.001026	20.856786
200.047014	-3.020500	3.799000	-11.473000	22.441283	0.001027	20.828437
201.045591	-2.983100	3.800000	-11.334000	22.458652	0.001028	20.853417
202.047226	-2.973100	3.800900	-11.299000	22.470712	0.001030	20.840365
203.046833	-2.997800	3.797700	-11.384000	22.461965	0.001029	20.851520
204.047812	-2.993800	3.799600	-11.374000	22.490024	0.001029	20.833627
205.050050	-3.012000	3.798000	-11.439000	22.490872	0.001031	20.839218
206.050373	-3.019600	3.798400	-11.468000	22.507093	0.001032	20.851670
207.051641	-2.991200	3.799600	-11.364000	22.513323	0.001032	20.857908
208.050659	-2.977900	3.800200	-11.315000	22.515840	0.001031	20.855688
209.050606	-2.992000	3.798200	-11.362000	22.510433	0.001032	20.855962
210.051667	-2.987300	3.798200	-11.345000	22.489352	0.001033	20.843860
211.050139	-2.976400	3.798200	-11.303000	22.499544	0.001034	20.878246
212.050942	-2.998800	3.796700	-11.385000	22.534454	0.001035	20.854416
213.049748	-3.003500	3.796900	-11.403000	22.503281	0.001034	20.856861
214.053267	-2.985700	3.798000	-11.338000	22.538216	0.001033	20.867666
215.052316	-2.993400	3.797200	-11.365000	22.558574	0.001037	20.864821
216.052954	-2.982200	3.796100	-11.320000	22.558100	0.001036	20.846330
217.054883	-2.998300	3.795200	-11.378000	22.589171	0.001036	20.850896
218.052570	-3.030300	3.796000	-11.500000	22.567992	0.001035	20.848176
219.052516	-2.999800	3.795200	-11.384000	22.572303	0.001037	20.859131
220.051903	-2.994500	3.795800	-11.365000	22.590143	0.001037	20.877946
221.051665	-3.024900	3.794700	-11.477000	22.608730	0.001037	20.865744
222.058960	-3.004100	3.793700	-11.396000	22.613066	0.001039	20.859181
223.056684	-2.991700	3.794700	-11.351000	22.634693	0.001038	20.871833
224.056518	-2.985300	3.794700	-11.326000	22.631354	0.001040	20.885557
225.056312	-2.996500	3.794600	-11.369000	22.662846	0.001039	20.886754
226.054912	-3.000700	3.794500	-11.385000	22.668327	0.001042	20.875176
227.060011	-2.998000	3.793700	-11.372000	22.664067	0.001042	20.878969
228.056121	-2.990300	3.792200	-11.338000	22.696281	0.001041	20.892743
229.060274	-3.016500	3.792100	-11.437000	22.702011	0.001043	20.879518
230.058442	-2.992900	3.794800	-11.356000	22.677671	0.001043	20.872207
231.055918	-3.021300	3.791600	-11.455000	22.702111	0.001043	20.860653
232.064791	-3.020500	3.790700	-11.449000	22.710906	0.001045	20.865194
233.061574	-2.992300	3.791800	-11.344000	22.721569	0.001045	20.868289
234.058666	-2.994700	3.792800	-11.357000	22.753183	0.001045	20.876723
235.065568	-3.006300	3.791400	-11.396000	22.754131	0.001045	20.890947
236.065266	-3.000900	3.791400	-11.376000	22.733602	0.001047	20.871808
237.063118	-3.003000	3.791800	-11.386000	22.763622	0.001047	20.887654
238.064311	-3.002300	3.791300	-11.382000	22.741052	0.001047	20.898234
239.072081	-3.015800	3.789400	-11.426000	22.755326	0.001048	20.869387
240.059166	-2.984200	3.790300	-11.310000	22.776303	0.001047	20.880442
241.063290	-2.982200	3.790800	-11.304000	22.795959	0.001050	20.894441
242.065177	-2.993000	3.790700	-11.344000	22.783030	0.001049	20.884335
243.060532	-2.993700	3.790900	-11.347000	22.800319	0.001051	20.881741
244.070539	-2.988200	3.788900	-11.321000	22.793294	0.001049	20.896987
245.066428	-3.005600	3.788200	-11.384000	22.808315	0.001051	20.883587
246.061855	-2.998700	3.789100	-11.361000	22.811629	0.001052	20.881691
247.063413	-3.007400	3.788000	-11.391000	22.835668	0.001053	20.880643
248.063912	-2.994900	3.789000	-11.346000	22.826899	0.001053	20.885134
249.060667	-3.015000	3.788500	-11.420000	22.817807	0.001054	20.885034
250.065806	-2.991600	3.789600	-11.336000	22.840053	0.001053	20.872708
251.064034	-2.996000	3.787100	-11.345000	22.850540	0.001053	20.876576
252.060472	-2.980400	3.788500	-11.291000	22.860181	0.001055	20.880069
253.065512	-2.980100	3.788200	-11.288000	22.851312	0.001053	20.870711
254.065646	-2.996300	3.786800	-11.345000	22.857939	0.001054	20.864548
255.060817	-2.977400	3.788800	-11.280000	22.870121	0.001057	20.888130
256.062156	-3.007800	3.786300	-11.387000	22.885764	0.001058	20.884362
257.062320	-2.981800	3.787900	-11.293000	22.876846	0.001058	20.878273
258.060105	-2.985600	3.785900	-11.302000	22.915580	0.001058	20.877250
259.076212	-2.991100	3.784700	-11.319000	22.936205	0.001058	20.866620
260.062493	-3.010500	3.785700	-11.396000	22.919915	0.001057	20.869739
261.061762	-2.973300	3.785900	-11.255000	22.954687	0.001061	20.862852
262.063762	-2.985000	3.785200	-11.297000	22.942035	0.001060	20.858236
263.062570	-3.017200	3.784300	-11.417000	22.960367	0.001060	20.861904
264.061153	-3.013400	3.783700	-11.400000	22.958424	0.001060	20.868966
265.065950	-2.975900	3.784500	-11.262000	22.962235	0.001061	20.879896
266.064138	-3.008700	3.784100	-11.384000	22.985026	0.001063	20.856265
267.069526	-2.999200	3.784200	-11.347000	22.985599	0.001063	20.863951
268.066164	-3.003100	3.784000	-11.363000	22.992075	0.001063	20.861431
269.066373	-3.014900	3.781900	-11.400000	22.976807	0.001061	20.851823
270.064782	-3.016700	3.783600	-11.413000	22.995712	0.001062	20.859858
271.066400	-3.012600	3.783000	-11.396000	22.989360	0.001064	20.844486
272.067431	-2.993800	3.783400	-11.325000	22.972672	0.001066	20.852422
