LabVIEW Measurement	
Writer_Version	2
Reader_Version	2
Separator	Tab
Decimal_Separator	.
Multi_Headings	No
X_Columns	One
Time_Pref	Absolute
Operator	admin
Description	Clolumns are: time, Current, Voltage, Power, Battery Temp, and Chamber Temp
Date	2024/08/16
Time	13:06:06.104549407958984375
***End_of_Header***	
	
Channels	6						
Samples	1	1	1	1	1	1	
Date	2024/09/10	2024/09/10	2024/09/10	2024/09/10	2024/09/10	2024/09/10	
Time	14:15:02.5764136314392089844	14:15:02.5844621658325195313	14:15:02.5914602279663085938	14:15:02.5549721717834472656	14:15:02.5549721717834472656	14:15:02.5549721717834472656	
X_Dimension	Time	Time	Time	Time	Time	Time	
X0	0.0000000000000000E+0	0.0000000000000000E+0	0.0000000000000000E+0	0.0000000000000000E+0	0.0000000000000000E+0	0.0000000000000000E+0	
Delta_X	1.000000	1.000000	1.000000	1.000000	1.000000	1.000000	
***End_of_Header***							
X_Value	Untitled	Untitled 1	Untitled 2	Untitled 3	Untitled 4	Untitled 5	Comment
0.000000	0.011896	4.098800	0.048769	20.986274	0.000913	20.783826
0.996377	-2.979300	3.923600	-11.687000	20.974951	0.000914	20.787674
1.998155	-2.999100	3.915700	-11.742000	20.984858	0.000912	20.780038
2.993354	-2.973600	3.911600	-11.630000	20.954061	0.000912	20.774368
3.998959	-2.994900	3.906700	-11.699000	20.995361	0.000912	20.790070
4.997222	-2.979100	3.903800	-11.628000	20.983978	0.000913	20.800496
5.999207	-3.012900	3.899700	-11.748000	20.995287	0.000910	20.785254
6.995054	-3.014000	3.896400	-11.743000	20.981865	0.000909	20.788899
8.002518	-2.997400	3.895100	-11.675000	21.002922	0.000909	20.793838
8.999881	-3.004700	3.893000	-11.696000	21.007342	0.000910	20.784509
10.001257	-3.020200	3.890400	-11.749000	21.008443	0.000906	20.760006
11.001894	-3.016900	3.887500	-11.726000	20.985614	0.000906	20.780321
11.998866	-3.029000	3.887200	-11.774000	20.995693	0.000905	20.775228
12.997103	-3.022500	3.885200	-11.742000	21.000028	0.000904	20.773400
13.996372	-3.020000	3.885100	-11.732000	20.999633	0.000905	20.782014
14.999283	-3.027800	3.883100	-11.756000	21.012266	0.000902	20.777106
15.996895	-3.001500	3.882800	-11.652000	20.991752	0.000902	20.794047
16.998097	-3.010600	3.881200	-11.684000	21.010647	0.000900	20.767425
17.999199	-2.999300	3.880300	-11.638000	21.017086	0.000904	20.770547
19.000465	-3.014000	3.879600	-11.692000	21.005585	0.000902	20.776588
20.000537	-2.993300	3.877900	-11.607000	21.016365	0.000899	20.770774
21.002450	-3.016500	3.875900	-11.691000	21.057806	0.000899	20.759592
22.002442	-3.017800	3.875900	-11.696000	21.056211	0.000901	20.790240
22.998381	-3.007700	3.876100	-11.658000	21.051495	0.000900	20.761340
24.000657	-3.023000	3.876000	-11.716000	21.060581	0.000899	20.773274
25.001446	-2.997200	3.874000	-11.609000	21.060581	0.000898	20.776119
26.000114	-3.001700	3.873200	-11.625000	21.058937	0.000898	20.764043
26.998891	-2.976300	3.875000	-11.531000	21.068615	0.000897	20.781784
28.014676	-2.999000	3.871800	-11.610000	21.083439	0.000895	20.767688
29.002867	-3.010300	3.871800	-11.655000	21.077104	0.000897	20.765145
30.012076	-2.994800	3.871500	-11.593000	21.086585	0.000897	20.766567
31.004041	-3.004700	3.869300	-11.624000	21.095794	0.000896	20.774831
32.000689	-3.009800	3.869200	-11.644000	21.092052	0.000897	20.778199
33.003692	-3.006100	3.869300	-11.631000	21.084215	0.000894	20.764196
34.012998	-3.001600	3.867200	-11.606000	21.112114	0.000895	20.761757
35.004802	-3.015200	3.867300	-11.659000	21.121145	0.000894	20.748031
36.000272	-3.000600	3.867100	-11.602000	21.124137	0.000895	20.769516
37.022289	-2.982400	3.868500	-11.537000	21.118455	0.000893	20.764780
38.005991	-3.011700	3.865300	-11.640000	21.140783	0.000893	20.758665
39.006607	-2.987500	3.867400	-11.553000	21.133653	0.000894	20.756749
40.008470	-3.002800	3.866500	-11.610000	21.157127	0.000893	20.758419
41.008934	-3.013600	3.865100	-11.646000	21.146772	0.000892	20.741897
42.009741	-2.999100	3.865000	-11.590000	21.140111	0.000892	20.761787
43.008327	-2.980400	3.865900	-11.521000	21.164944	0.000894	20.786153
44.013975	-2.987800	3.865400	-11.548000	21.172971	0.000893	20.758621
45.009651	-2.993000	3.864500	-11.564000	21.185572	0.000892	20.762217
46.013987	-2.993200	3.862600	-11.561000	21.186342	0.000892	20.757298
47.007965	-2.996400	3.863100	-11.574000	21.195556	0.000892	20.745652
48.012439	-3.011000	3.862100	-11.627000	21.202912	0.000892	20.745898
49.011953	-3.009000	3.861600	-11.619000	21.231499	0.000892	20.758375
50.014030	-2.988800	3.863200	-11.545000	21.223965	0.000891	20.764588
51.009982	-3.014300	3.860400	-11.635000	21.232650	0.000894	20.752888
52.012287	-3.006500	3.861200	-11.608000	21.241280	0.000892	20.751090
53.012997	-2.980200	3.860600	-11.504000	21.247984	0.000892	20.767280
54.011457	-3.015000	3.860300	-11.638000	21.269135	0.000891	20.745290
55.015230	-2.970100	3.860500	-11.465000	21.278841	0.000892	20.743146
56.009866	-3.014300	3.859100	-11.632000	21.264874	0.000891	20.760943
57.019299	-3.008600	3.859100	-11.610000	21.275844	0.000892	20.746786
58.012659	-3.008600	3.859200	-11.609000	21.298372	0.000893	20.747039
59.014233	-3.001700	3.856800	-11.575000	21.280786	0.000891	20.768801
60.014279	-3.008600	3.858800	-11.609000	21.276521	0.000891	20.765956
61.023293	-2.979400	3.857800	-11.493000	21.281981	0.000891	20.751503
62.016442	-3.011900	3.856700	-11.614000	21.280455	0.000892	20.740019
63.014872	-2.999300	3.858000	-11.571000	21.302454	0.000891	20.749226
64.019105	-3.008700	3.856300	-11.601000	21.300232	0.000892	20.756486
65.015610	-2.998400	3.855900	-11.560000	21.314431	0.000890	20.742716
66.016923	-2.991200	3.857100	-11.536000	21.326828	0.000891	20.745635
67.017440	-2.998100	3.856100	-11.560000	21.312886	0.000893	20.752076
68.021967	-2.985200	3.856400	-11.511000	21.346782	0.000891	20.756590
69.014148	-3.012000	3.854900	-11.610000	21.349102	0.000894	20.760334
70.023007	-2.992800	3.854400	-11.535000	21.367881	0.000893	20.724119
71.021461	-2.987600	3.854200	-11.513000	21.329493	0.000892	20.722696
72.016013	-3.000700	3.855200	-11.567000	21.360318	0.000897	20.745002
73.023455	-3.010200	3.852300	-11.594000	21.390752	0.000895	20.734200
74.020744	-2.993200	3.852100	-11.529000	21.415637	0.000895	20.751512
75.025663	-3.024400	3.853300	-11.652000	21.391640	0.000895	20.730821
76.021422	-2.988300	3.853800	-11.516000	21.400965	0.000893	20.731141
77.019085	-3.007200	3.851700	-11.582000	21.407841	0.000895	20.741340
78.019271	-2.980700	3.854600	-11.487000	21.401280	0.000894	20.742363
79.023256	-3.011200	3.853100	-11.600000	21.386411	0.000895	20.735072
80.025492	-3.007000	3.851300	-11.580000	21.401773	0.000895	20.743330
81.016406	-2.991100	3.850800	-11.515000	21.389095	0.000894	20.729697
82.024762	-3.005500	3.853000	-11.579000	21.422811	0.000894	20.738301
83.025001	-2.992900	3.851200	-11.525000	21.437570	0.000895	20.742637
84.020329	-2.997400	3.851100	-11.541000	21.440931	0.000897	20.731775
85.023889	-2.996800	3.850900	-11.540000	21.448661	0.000896	20.732397
86.026180	-2.983900	3.850500	-11.487000	21.462141	0.000895	20.716486
87.017230	-2.991100	3.848900	-11.512000	21.478500	0.000896	20.752770
88.025999	-3.014600	3.848900	-11.602000	21.481184	0.000896	20.737912
89.026645	-3.002000	3.848300	-11.552000	21.483948	0.000896	20.728349
90.019166	-2.990900	3.849000	-11.511000	21.507058	0.000895	20.751948
91.022682	-3.000100	3.849500	-11.547000	21.507526	0.000894	20.763323
92.025609	-3.007900	3.848700	-11.573000	21.516198	0.000897	20.755404
93.024233	-3.010700	3.848400	-11.585000	21.532778	0.000894	20.753977
94.023400	-2.995700	3.848500	-11.528000	21.529826	0.000895	20.740116
95.027466	-3.009500	3.848800	-11.582000	21.560817	0.000896	20.740308
96.019974	-3.000500	3.847900	-11.545000	21.544302	0.000897	20.744170
97.024892	-2.989700	3.847400	-11.501000	21.569528	0.000898	20.743334
98.027324	-2.993200	3.848500	-11.519000	21.584888	0.000898	20.746377
99.029922	-3.005400	3.846400	-11.559000	21.568342	0.000897	20.735509
100.032156	-2.981700	3.846800	-11.469000	21.557162	0.000898	20.736650
101.026999	-2.992200	3.846800	-11.509000	21.597457	0.000897	20.747575
102.027113	-2.985500	3.846500	-11.482000	21.597570	0.000898	20.755749
103.028296	-2.980800	3.847500	-11.467000	21.585294	0.000896	20.729713
104.028117	-2.983500	3.847300	-11.476000	21.626610	0.000896	20.751145
105.026267	-2.993600	3.845400	-11.510000	21.616052	0.000897	20.757175
106.027622	-2.983300	3.844400	-11.468000	21.629180	0.000898	20.750871
107.025949	-2.987100	3.845800	-11.486000	21.644736	0.000898	20.741783
108.023481	-2.980700	3.845400	-11.460000	21.649064	0.000900	20.754175
109.027543	-2.997100	3.845200	-11.522000	21.623947	0.000898	20.737099
110.027210	-2.992000	3.844000	-11.500000	21.638980	0.000900	20.743609
111.031635	-2.992700	3.843500	-11.502000	21.659442	0.000900	20.736110
112.029788	-3.018500	3.842300	-11.597000	21.664895	0.000898	20.748206
113.032783	-2.989800	3.845000	-11.495000	21.669376	0.000903	20.747475
114.029750	-2.971800	3.845900	-11.428000	21.687320	0.000901	20.732715
115.039347	-2.988000	3.843500	-11.482000	21.684467	0.000901	20.744085
116.027911	-2.991500	3.842400	-11.493000	21.716630	0.000902	20.739763
117.025993	-2.984000	3.843700	-11.467000	21.716466	0.000902	20.733435
118.027958	-2.993700	3.843500	-11.504000	21.719980	0.000902	20.743116
119.039063	-3.003300	3.841600	-11.537000	21.734883	0.000903	20.764671
120.030647	-3.005500	3.841400	-11.544000	21.741382	0.000901	20.764063
121.034353	-3.006600	3.841700	-11.548000	21.747876	0.000902	20.744483
122.030350	-2.999300	3.840900	-11.520000	21.742161	0.000903	20.735918
123.030650	-3.017900	3.840600	-11.589000	21.732779	0.000903	20.754030
124.030076	-3.014100	3.840700	-11.575000	21.753615	0.000904	20.752597
125.031034	-3.004000	3.841500	-11.540000	21.757542	0.000904	20.764115
126.031226	-2.989100	3.841100	-11.481000	21.766208	0.000903	20.760459
127.029067	-3.022300	3.839700	-11.602000	21.761786	0.000904	20.743705
128.028550	-2.991300	3.841200	-11.488000	21.794894	0.000905	20.738434
129.031549	-2.996900	3.838700	-11.504000	21.769005	0.000905	20.739076
130.031638	-2.981000	3.839800	-11.445000	21.805098	0.000905	20.748648
131.031869	-2.992800	3.840500	-11.493000	21.807161	0.000907	20.761619
132.038938	-2.976000	3.840800	-11.430000	21.811138	0.000905	20.756116
133.034248	-2.990900	3.840200	-11.485000	21.830551	0.000907	20.723387
134.030109	-2.989500	3.838600	-11.474000	21.829401	0.000907	20.737410
135.031010	-3.009500	3.839200	-11.553000	21.838835	0.000906	20.743535
136.033244	-2.979300	3.838900	-11.437000	21.837730	0.000907	20.783206
137.033023	-2.999700	3.838200	-11.513000	21.830017	0.000908	20.742769
138.030310	-2.981300	3.838500	-11.443000	21.832454	0.000908	20.750424
139.032885	-2.986300	3.837000	-11.458000	21.855558	0.000907	20.755057
140.034126	-3.011000	3.836900	-11.551000	21.845896	0.000907	20.766724
141.036025	-3.004300	3.837800	-11.529000	21.845935	0.000909	20.753012
142.041498	-3.013200	3.836300	-11.558000	21.844563	0.000908	20.752113
143.037191	-3.000800	3.838600	-11.517000	21.870751	0.000908	20.767894
144.033318	-3.030200	3.834500	-11.618000	21.871165	0.000910	20.751713
145.036729	-2.990000	3.836600	-11.471000	21.877166	0.000909	20.753925
146.037301	-3.000400	3.836800	-11.512000	21.864346	0.000908	20.743464
147.036206	-2.991400	3.836200	-11.474000	21.881937	0.000909	20.755382
148.047455	-2.986200	3.836700	-11.457000	21.894994	0.000910	20.753278
149.043353	-2.985100	3.835100	-11.447000	21.907053	0.000911	20.757763
150.037828	-3.002500	3.835700	-11.516000	21.914425	0.000910	20.766565
151.040367	-3.017100	3.834400	-11.569000	21.948723	0.000911	20.753481
152.041518	-2.989900	3.836300	-11.469000	21.962400	0.000912	20.762905
153.043255	-3.021000	3.832700	-11.577000	21.947830	0.000912	20.747845
154.039364	-2.995900	3.834200	-11.485000	21.963131	0.000913	20.747988
155.043859	-3.007300	3.834000	-11.529000	21.970058	0.000913	20.766303
156.041972	-2.984500	3.835100	-11.444000	21.981638	0.000912	20.761300
157.044259	-2.997700	3.833700	-11.491000	22.005761	0.000913	20.772171
158.042092	-2.990000	3.832700	-11.458000	22.007922	0.000911	20.760584
159.042976	-3.003500	3.832400	-11.510000	22.004399	0.000914	20.766066
160.045255	-3.006300	3.832200	-11.519000	22.001873	0.000914	20.783452
161.049356	-3.001700	3.833100	-11.505000	22.019339	0.000913	20.774858
162.049342	-2.996600	3.832800	-11.484000	22.034269	0.000915	20.776054
163.047178	-3.023000	3.831800	-11.582000	22.027080	0.000916	20.775496
164.045520	-3.012700	3.832200	-11.544000	22.016202	0.000914	20.751802
165.045088	-3.014200	3.829900	-11.543000	22.036238	0.000914	20.776602
166.046535	-3.016200	3.830400	-11.552000	22.033367	0.000916	20.788901
167.045316	-3.008700	3.832500	-11.530000	22.054419	0.000918	20.762086
168.045450	-2.997300	3.831600	-11.484000	22.070991	0.000919	20.770617
169.055655	-3.027800	3.830900	-11.598000	22.073582	0.000917	20.798814
170.047302	-3.008800	3.830300	-11.523000	22.084540	0.000919	20.777068
171.052440	-3.005000	3.831000	-11.510000	22.099819	0.000917	20.761069
172.050742	-2.992000	3.830900	-11.462000	22.101856	0.000919	20.762161
173.046322	-3.036500	3.827300	-11.620000	22.079592	0.000918	20.754570
174.049189	-2.993000	3.830000	-11.462000	22.112336	0.000921	20.781662
175.051645	-2.985800	3.829100	-11.432000	22.094837	0.000922	20.767936
176.049201	-2.990400	3.830900	-11.454000	22.132296	0.000921	20.788369
177.045920	-2.993200	3.829400	-11.460000	22.150979	0.000923	20.813712
178.047308	-2.997000	3.829500	-11.476000	22.149410	0.000922	20.775157
179.070769	-3.030300	3.829200	-11.603000	22.171660	0.000923	20.775148
180.051580	-3.012500	3.828000	-11.531000	22.174373	0.000924	20.774071
181.049098	-3.049400	3.826300	-11.666000	22.175715	0.000923	20.775415
182.055196	-2.992500	3.828300	-11.454000	22.165163	0.000923	20.766747
183.049438	-3.016900	3.828700	-11.549000	22.180412	0.000923	20.787230
184.049510	-3.012600	3.827400	-11.530000	22.208575	0.000924	20.795987
185.054014	-2.985900	3.828200	-11.428000	22.207599	0.000924	20.789320
186.052048	-3.017900	3.826400	-11.547000	22.204679	0.000925	20.775016
187.052381	-3.005900	3.826600	-11.502000	22.206790	0.000925	20.786139
188.051134	-3.020900	3.826800	-11.559000	22.196643	0.000926	20.787833
189.048435	-2.998900	3.827600	-11.477000	22.193768	0.000926	20.780213
190.055221	-3.008400	3.826700	-11.511000	22.204981	0.000929	20.769628
191.054617	-3.004200	3.826300	-11.494000	22.189501	0.000928	20.785424
192.052033	-2.991400	3.827700	-11.449000	22.218853	0.000929	20.776880
193.052699	-3.010300	3.825000	-11.514000	22.219701	0.000929	20.789583
194.064344	-3.003300	3.824500	-11.485000	22.233198	0.000929	20.800726
195.054869	-2.971000	3.826600	-11.367000	22.234590	0.000930	20.777463
196.052330	-3.015200	3.824500	-11.531000	22.229731	0.000931	20.806737
197.057295	-3.003600	3.823600	-11.484000	22.252822	0.000931	20.786710
198.051580	-2.987500	3.826200	-11.430000	22.244294	0.000930	20.792869
199.051660	-3.013200	3.824200	-11.522000	22.267893	0.000932	20.802748
200.058244	-3.003000	3.824000	-11.483000	22.256123	0.000931	20.772471
201.057981	-3.007900	3.825300	-11.505000	22.261777	0.000933	20.792357
202.059469	-2.995300	3.824300	-11.454000	22.246412	0.000932	20.781239
203.060588	-3.005600	3.822100	-11.486000	22.262562	0.000933	20.800729
204.058533	-2.986900	3.823700	-11.420000	22.229758	0.000934	20.800127
205.060981	-3.008300	3.822000	-11.496000	22.245253	0.000937	20.789089
206.060802	-2.999000	3.823200	-11.465000	22.225428	0.000936	20.789628
207.060680	-3.014400	3.822900	-11.522000	22.234446	0.000935	20.792018
208.059728	-3.030900	3.820700	-11.578000	22.239527	0.000936	20.801848
209.061270	-2.997800	3.822900	-11.459000	22.262920	0.000938	20.779751
210.062453	-2.995700	3.822400	-11.449000	22.269590	0.000937	20.793067
211.061514	-3.017200	3.820800	-11.527000	22.290248	0.000938	20.809011
212.074249	-2.987600	3.823000	-11.421000	22.292039	0.000939	20.789467
213.062645	-2.985500	3.823500	-11.414000	22.311918	0.000941	20.790407
214.062511	-2.994800	3.820900	-11.442000	22.312535	0.000940	20.809990
215.062382	-3.005000	3.820900	-11.481000	22.309418	0.000940	20.821568
216.065562	-3.003300	3.820300	-11.472000	22.319082	0.000941	20.804692
217.068578	-2.981100	3.821200	-11.390000	22.329342	0.000939	20.802163
218.065825	-2.996500	3.819700	-11.444000	22.302993	0.000941	20.809918
219.078364	-2.992900	3.819200	-11.429000	22.350394	0.000942	20.792898
220.065578	-2.983900	3.819800	-11.396000	22.349162	0.000942	20.811579
221.064176	-2.996800	3.820200	-11.446000	22.368423	0.000943	20.810004
222.063478	-2.985200	3.819100	-11.400000	22.369790	0.000942	20.802363
223.065331	-3.007100	3.818500	-11.482000	22.376908	0.000943	20.810440
224.068259	-3.013800	3.817600	-11.505000	22.398512	0.000944	20.787503
225.065107	-2.990500	3.817400	-11.415000	22.429827	0.000944	20.822655
226.066924	-3.015400	3.818700	-11.513000	22.423889	0.000947	20.804381
227.066403	-3.011500	3.818300	-11.497000	22.433404	0.000945	20.813909
228.067502	-3.007700	3.818200	-11.483000	22.456698	0.000946	20.815900
229.064625	-3.027500	3.817300	-11.557000	22.468901	0.000948	20.824801
230.075342	-2.975600	3.818400	-11.361000	22.493832	0.000946	20.831751
231.067239	-2.988700	3.816500	-11.405000	22.493778	0.000946	20.808939
232.067328	-2.997900	3.817500	-11.443000	22.482135	0.000947	20.819563
233.067393	-2.986800	3.817500	-11.401000	22.495688	0.000948	20.826972
234.065346	-2.981400	3.817300	-11.380000	22.518553	0.000948	20.821896
235.063566	-2.981400	3.818200	-11.383000	22.524827	0.000950	20.822963
236.067436	-2.984400	3.816600	-11.389000	22.517597	0.000948	20.829947
237.063850	-2.984500	3.815200	-11.385000	22.512656	0.000948	20.823103
238.066909	-2.973000	3.816600	-11.346000	22.513397	0.000947	20.841388
239.069609	-2.995700	3.815100	-11.427000	22.522585	0.000949	20.837788
240.063191	-2.995000	3.814200	-11.422000	22.524347	0.000951	20.833863
241.067736	-3.000100	3.815600	-11.446000	22.526788	0.000950	20.812600
242.066743	-2.985900	3.815200	-11.391000	22.544050	0.000951	20.837474
243.067647	-3.001600	3.814600	-11.448000	22.532288	0.000952	20.831858
244.063624	-3.011200	3.813900	-11.483000	22.540328	0.000950	20.844177
245.074146	-3.002300	3.814300	-11.451000	22.521884	0.000952	20.843249
246.067654	-3.001400	3.813200	-11.444000	22.553328	0.000952	20.821637
247.067503	-3.011400	3.813200	-11.481000	22.545296	0.000952	20.834929
248.069107	-3.000800	3.812700	-11.440000	22.556930	0.000955	20.837571
249.070945	-3.016900	3.812700	-11.501000	22.534201	0.000952	20.833300
250.067342	-3.002900	3.812300	-11.447000	22.570058	0.000952	20.845504
251.066118	-3.002800	3.813300	-11.450000	22.562454	0.000956	20.825087
252.069647	-2.986500	3.812400	-11.385000	22.564668	0.000953	20.832994
253.067026	-3.027400	3.812200	-11.540000	22.565158	0.000956	20.840597
254.072351	-2.998900	3.811900	-11.430000	22.563486	0.000954	20.842241
255.066583	-2.993200	3.812900	-11.411000	22.591043	0.000956	20.826220
256.070313	-2.994100	3.810300	-11.407000	22.553240	0.000956	20.841936
257.078980	-3.005600	3.811700	-11.455000	22.576413	0.000956	20.850446
258.075106	-2.998400	3.811200	-11.425000	22.551642	0.000957	20.837491
259.071960	-3.004200	3.810400	-11.445000	22.574589	0.000956	20.854309
260.071961	-2.988500	3.810500	-11.387000	22.577606	0.000959	20.843107
261.072330	-2.988200	3.810100	-11.384000	22.595291	0.000958	20.832371
262.071537	-3.003700	3.809700	-11.442000	22.603265	0.000960	20.837038
263.074265	-2.993100	3.808900	-11.399000	22.603862	0.000959	20.834791
264.072737	-2.991900	3.810100	-11.398000	22.629549	0.000960	20.850561
265.073001	-3.005300	3.808900	-11.445000	22.633904	0.000958	20.842121
266.071366	-3.005600	3.809300	-11.448000	22.642602	0.000960	20.840876
267.074682	-3.018700	3.809300	-11.498000	22.659516	0.000960	20.837429
268.074054	-3.016700	3.807300	-11.485000	22.666740	0.000962	20.867423
269.075094	-3.009600	3.808500	-11.461000	22.695320	0.000961	20.848161
270.072058	-3.006100	3.808000	-11.446000	22.682086	0.000963	20.844388
271.070463	-3.011800	3.807200	-11.465000	22.706178	0.000962	20.852399
272.076390	-3.002100	3.807100	-11.429000	22.715724	0.000963	20.853426
