LabVIEW Measurement	
Writer_Version	2
Reader_Version	2
Separator	Tab
Decimal_Separator	.
Multi_Headings	No
X_Columns	One
Time_Pref	Absolute
Operator	admin
Description	Clolumns are: time, Current, Voltage, Power, Battery Temp, and Chamber Temp
Date	2024/08/16
Time	13:06:06.104549407958984375
***End_of_Header***	
	
Channels	6						
Samples	1	1	1	1	1	1	
Date	2024/09/16	2024/09/16	2024/09/16	2024/09/16	2024/09/16	2024/09/16	
Time	05:53:36.2621183395385742188	05:53:36.2676153182983398438	05:53:36.2757358551025390625	05:53:36.2463917732238769531	05:53:36.2463917732238769531	05:53:36.2463917732238769531	
X_Dimension	Time	Time	Time	Time	Time	Time	
X0	0.0000000000000000E+0	0.0000000000000000E+0	0.0000000000000000E+0	0.0000000000000000E+0	0.0000000000000000E+0	0.0000000000000000E+0	
Delta_X	1.000000	1.000000	1.000000	1.000000	1.000000	1.000000	
***End_of_Header***							
X_Value	Untitled	Untitled 1	Untitled 2	Untitled 3	Untitled 4	Untitled 5	Comment
0.000000	0.015116	4.090100	0.061727	21.024581	0.000940	20.823562
1.007603	-3.009200	3.908300	-11.760000	20.999984	0.000940	20.778098
2.005118	-3.008000	3.902600	-11.738000	21.010205	0.000940	20.782631
3.008507	-3.002300	3.896000	-11.696000	21.003100	0.000938	20.794491
4.008295	-3.010900	3.892000	-11.717000	20.997559	0.000938	20.790371
5.003967	-3.006600	3.889500	-11.692000	21.012285	0.000936	20.807471
6.014181	-2.992900	3.888400	-11.636000	20.989733	0.000936	20.796294
7.006438	-3.014600	3.884900	-11.710000	21.011460	0.000934	20.799059
8.010021	-2.978500	3.882600	-11.563000	21.022364	0.000933	20.770610
9.008595	-3.011800	3.879400	-11.683000	21.016048	0.000933	20.816449
10.012431	-3.020500	3.876800	-11.709000	20.999061	0.000934	20.804675
11.010409	-3.015800	3.874700	-11.684000	21.011386	0.000931	20.785709
12.009811	-3.014000	3.873600	-11.674000	21.009342	0.000931	20.788406
13.012220	-3.009000	3.872800	-11.653000	21.035194	0.000931	20.780597
14.014530	-2.995000	3.872900	-11.598000	21.036591	0.000931	20.776305
15.012673	-3.026000	3.869400	-11.708000	21.056348	0.000930	20.760030
16.009621	-2.991000	3.870100	-11.575000	21.052887	0.000928	20.785493
17.010566	-2.987900	3.868900	-11.558000	21.033777	0.000929	20.784396
18.007998	-2.995700	3.867600	-11.585000	21.035766	0.000928	20.759359
19.015877	-3.015500	3.865200	-11.655000	21.061642	0.000927	20.784292
20.013223	-2.994600	3.864800	-11.572000	21.046601	0.000926	20.777308
21.010454	-3.005200	3.864400	-11.612000	21.075888	0.000927	20.771514
22.010022	-3.000500	3.864400	-11.593000	21.081280	0.000928	20.760787
23.009472	-2.999300	3.862900	-11.585000	21.080475	0.000926	20.767568
24.008436	-2.992900	3.863200	-11.561000	21.098592	0.000925	20.779052
25.011232	-2.999400	3.861300	-11.580000	21.080357	0.000925	20.778355
26.012650	-3.004200	3.860700	-11.597000	21.100883	0.000923	20.770437
27.012547	-3.004800	3.860300	-11.599000	21.104804	0.000922	20.796645
28.018455	-2.981200	3.860000	-11.506000	21.109297	0.000923	20.757991
29.011281	-3.012700	3.857600	-11.620000	21.127453	0.000923	20.778523
30.015933	-2.999000	3.858000	-11.569000	21.141125	0.000923	20.768965
31.017362	-2.982500	3.856900	-11.502000	21.143723	0.000924	20.772512
32.015323	-3.002300	3.856800	-11.578000	21.131903	0.000922	20.754998
33.017927	-3.012200	3.855600	-11.611000	21.141229	0.000922	20.770966
34.021151	-2.997900	3.856500	-11.560000	21.182492	0.000922	20.773362
35.020177	-3.018700	3.853400	-11.630000	21.147737	0.000924	20.770363
36.014648	-3.019000	3.853900	-11.635000	21.181662	0.000921	20.749771
37.015842	-2.984300	3.854600	-11.502000	21.162283	0.000921	20.775905
38.015452	-3.009200	3.853000	-11.593000	21.183164	0.000923	20.760282
39.015417	-3.001600	3.852500	-11.563000	21.181791	0.000921	20.758909
40.025597	-3.013000	3.851800	-11.604000	21.193419	0.000921	20.766748
41.019301	-3.005300	3.851800	-11.575000	21.196386	0.000922	20.768294
42.019855	-2.995600	3.851400	-11.536000	21.211228	0.000920	20.765597
43.022049	-2.995800	3.851700	-11.538000	21.220105	0.000921	20.760726
44.024391	-3.001500	3.851600	-11.559000	21.195290	0.000920	20.762456
45.020455	-3.000200	3.850600	-11.550000	21.233154	0.000922	20.777100
46.027376	-3.026300	3.847100	-11.642000	21.233776	0.000921	20.761127
47.021493	-2.962500	3.850600	-11.406000	21.234995	0.000922	20.752863
48.025490	-3.004600	3.848300	-11.562000	21.255677	0.000922	20.757432
49.023966	-2.979700	3.850200	-11.469000	21.258738	0.000921	20.763338
50.023023	-2.992200	3.849400	-11.517000	21.268899	0.000922	20.735096
51.024872	-2.988100	3.848700	-11.498000	21.276507	0.000921	20.769736
52.021121	-2.994500	3.846900	-11.518000	21.266702	0.000920	20.779841
53.022835	-3.010400	3.846500	-11.577000	21.268272	0.000920	20.752962
54.028828	-3.000800	3.847300	-11.543000	21.290646	0.000921	20.762544
55.026554	-3.021700	3.845500	-11.619000	21.315415	0.000921	20.762193
56.025471	-3.031700	3.843700	-11.651000	21.318560	0.000921	20.751114
57.027536	-3.006000	3.845000	-11.557000	21.334871	0.000922	20.765062
58.027685	-2.999500	3.845400	-11.533000	21.349716	0.000923	20.752888
59.027765	-3.014600	3.843500	-11.586000	21.314590	0.000922	20.758523
60.027457	-3.007500	3.843300	-11.556000	21.353354	0.000921	20.744673
61.026056	-3.013200	3.843500	-11.580000	21.336693	0.000918	20.772101
62.027581	-2.979100	3.843400	-11.449000	21.351932	0.000922	20.759847
63.028095	-2.990700	3.843800	-11.495000	21.370834	0.000921	20.772594
64.027997	-2.985800	3.844100	-11.476000	21.380989	0.000922	20.738657
65.028975	-2.990900	3.843700	-11.495000	21.387797	0.000922	20.741675
66.029035	-3.009000	3.841200	-11.557000	21.396648	0.000922	20.752901
67.030072	-3.007800	3.842000	-11.553000	21.395601	0.000923	20.736681
68.030246	-2.995100	3.842600	-11.508000	21.409646	0.000920	20.750733
69.031568	-3.006200	3.840700	-11.544000	21.413363	0.000922	20.724579
70.034364	-3.012400	3.841000	-11.568000	21.397743	0.000922	20.753524
71.030117	-2.991800	3.842100	-11.493000	21.435754	0.000924	20.743665
72.030840	-2.987600	3.840800	-11.474000	21.430517	0.000921	20.739372
73.033717	-3.015900	3.839600	-11.578000	21.456126	0.000922	20.748875
74.031141	-2.992800	3.839900	-11.491000	21.448568	0.000922	20.747003
75.032686	-2.992000	3.840400	-11.489000	21.468170	0.000921	20.731054
76.035335	-2.973200	3.840000	-11.416000	21.475807	0.000921	20.749127
77.030345	-3.011600	3.839000	-11.560000	21.462957	0.000922	20.734847
78.030652	-3.022300	3.837900	-11.598000	21.482682	0.000923	20.730876
79.030532	-3.029600	3.838000	-11.626000	21.496696	0.000922	20.747269
80.033994	-3.001500	3.838000	-11.518000	21.488270	0.000923	20.740735
81.032229	-2.979100	3.838400	-11.433000	21.506203	0.000923	20.761050
82.035247	-2.985200	3.838600	-11.458000	21.523256	0.000922	20.744449
83.032077	-3.013000	3.837200	-11.560000	21.520709	0.000923	20.734313
84.031871	-2.992800	3.837900	-11.485000	21.526993	0.000923	20.724478
85.033460	-3.007000	3.835500	-11.530000	21.529712	0.000923	20.734787
86.033548	-2.992100	3.835900	-11.477000	21.545399	0.000925	20.736259
87.035516	-2.999800	3.834800	-11.502000	21.549110	0.000925	20.738550
88.033329	-2.987300	3.836300	-11.458000	21.553024	0.000923	20.725871
89.032814	-2.995500	3.835200	-11.487000	21.565289	0.000924	20.724868
90.033292	-2.982300	3.835600	-11.436000	21.566760	0.000925	20.729659
91.035369	-3.000200	3.836000	-11.508000	21.574810	0.000924	20.723489
92.033573	-2.975700	3.836000	-11.413000	21.613313	0.000923	20.735467
93.034946	-3.009000	3.835100	-11.539000	21.606231	0.000924	20.740707
94.034096	-2.998400	3.834200	-11.496000	21.596897	0.000924	20.725676
95.035187	-3.013300	3.833400	-11.548000	21.595998	0.000925	20.720510
96.037154	-2.991100	3.833100	-11.463000	21.616288	0.000924	20.752669
97.034123	-2.990600	3.833100	-11.462000	21.630705	0.000927	20.730585
98.034538	-3.017700	3.833200	-11.565000	21.633616	0.000925	20.705522
99.036630	-2.996600	3.832800	-11.484000	21.658955	0.000926	20.720449
100.038224	-3.002200	3.831600	-11.502000	21.648871	0.000926	20.734541
101.035158	-2.983600	3.832400	-11.433000	21.659191	0.000927	20.707408
102.037497	-2.993400	3.831800	-11.470000	21.673977	0.000927	20.744019
103.038823	-2.993600	3.833200	-11.474000	21.674366	0.000927	20.732080
104.036942	-3.007500	3.832500	-11.525000	21.670157	0.000927	20.715064
105.043324	-2.992700	3.832700	-11.470000	21.676108	0.000928	20.727659
106.037014	-3.008000	3.831700	-11.524000	21.695835	0.000927	20.739815
107.041094	-2.964200	3.832000	-11.357000	21.698020	0.000929	20.723509
108.040259	-3.006200	3.831300	-11.515000	21.696870	0.000928	20.743696
109.043390	-2.999600	3.831600	-11.492000	21.709884	0.000929	20.747237
110.039100	-3.001800	3.830900	-11.499000	21.715071	0.000931	20.730142
111.043544	-3.013700	3.828800	-11.537000	21.708156	0.000927	20.724170
112.041499	-3.005500	3.829200	-11.507000	21.708126	0.000928	20.711337
113.040224	-3.013900	3.829300	-11.540000	21.720598	0.000932	20.735199
114.047114	-3.016900	3.828100	-11.548000	21.714636	0.000931	20.717852
115.044336	-3.014000	3.828700	-11.538000	21.735373	0.000932	20.737658
116.045583	-3.011200	3.828100	-11.525000	21.734647	0.000930	20.703265
117.041347	-3.010800	3.827800	-11.523000	21.759954	0.000930	20.722904
118.039510	-3.011100	3.828400	-11.527000	21.766709	0.000933	20.714492
119.040064	-3.000800	3.828000	-11.486000	21.765885	0.000932	20.719357
120.040421	-3.038800	3.827100	-11.628000	21.768569	0.000932	20.716828
121.045323	-2.986400	3.827700	-11.430000	21.784849	0.000933	20.716052
122.043555	-3.005300	3.825900	-11.496000	21.779959	0.000932	20.695508
123.042994	-2.989600	3.828900	-11.445000	21.804637	0.000934	20.745816
124.043107	-3.006000	3.825900	-11.499000	21.821618	0.000934	20.713498
125.046453	-3.009400	3.826600	-11.514000	21.842309	0.000931	20.719509
126.046061	-3.003900	3.825600	-11.491000	21.837689	0.000933	20.709669
127.046567	-3.010100	3.826000	-11.516000	21.842229	0.000933	20.719903
128.046706	-3.012000	3.826100	-11.523000	21.841380	0.000936	20.716683
129.046922	-2.997900	3.825700	-11.467000	21.861123	0.000937	20.705623
130.045905	-3.006000	3.824600	-11.496000	21.858202	0.000936	20.710286
131.046314	-2.979500	3.825000	-11.395000	21.872788	0.000936	20.709713
132.048250	-3.016400	3.823600	-11.533000	21.873054	0.000937	20.698598
133.045495	-2.985600	3.824800	-11.418000	21.872561	0.000937	20.707589
134.051089	-3.013300	3.824100	-11.523000	21.869087	0.000936	20.718810
135.049907	-2.983600	3.824000	-11.407000	21.901348	0.000937	20.727869
136.047924	-3.018100	3.823300	-11.538000	21.878087	0.000937	20.713120
137.050447	-3.014500	3.823700	-11.525000	21.892668	0.000937	20.700213
138.047784	-3.021200	3.822200	-11.547000	21.901313	0.000938	20.724989
139.049087	-3.021600	3.822900	-11.550000	21.903016	0.000938	20.724797
140.052845	-3.000900	3.823400	-11.473000	21.896600	0.000938	20.718849
141.051276	-3.031500	3.821900	-11.585000	21.917665	0.000939	20.731874
142.047891	-3.011600	3.822400	-11.511000	21.921050	0.000940	20.722459
143.050742	-3.005200	3.821500	-11.483000	21.916589	0.000940	20.721314
144.049407	-2.995500	3.822300	-11.448000	21.901707	0.000943	20.706891
145.051740	-3.020100	3.820900	-11.538000	21.918465	0.000941	20.699956
146.050457	-3.031300	3.821300	-11.582000	21.932295	0.000940	20.706688
147.058077	-2.981300	3.822400	-11.395000	21.957770	0.000941	20.723180
148.053761	-3.006000	3.821200	-11.486000	21.962309	0.000944	20.691686
149.056499	-3.010100	3.820600	-11.500000	21.976919	0.000941	20.715796
150.054918	-2.984400	3.820200	-11.400000	21.996433	0.000943	20.720631
151.055206	-2.991100	3.821100	-11.427000	22.020195	0.000943	20.697475
152.059523	-2.992500	3.819600	-11.430000	21.993842	0.000945	20.700493
153.058959	-2.991300	3.818600	-11.422000	22.032731	0.000944	20.721881
154.055859	-3.001200	3.819400	-11.461000	22.028745	0.000944	20.702242
155.057468	-3.006000	3.819700	-11.481000	22.059176	0.000945	20.710896
156.056999	-3.017600	3.817500	-11.519000	22.042949	0.000945	20.705082
157.059195	-3.000800	3.819400	-11.460000	22.039135	0.000945	20.707428
158.059015	-3.012800	3.817400	-11.500000	22.051099	0.000946	20.715613
159.057106	-3.016600	3.817800	-11.515000	22.057109	0.000949	20.693178
160.055634	-3.007700	3.816600	-11.478000	22.074031	0.000947	20.701585
161.058836	-3.017100	3.817100	-11.515000	22.067726	0.000948	20.704756
162.057593	-3.006500	3.818900	-11.480000	22.077272	0.000947	20.718107
163.061207	-3.038700	3.815700	-11.594000	22.102749	0.000947	20.698567
164.054789	-3.002600	3.816100	-11.457000	22.086025	0.000947	20.703635
165.054202	-2.980200	3.817700	-11.376000	22.083701	0.000948	20.688979
166.062149	-2.999500	3.815900	-11.444000	22.079315	0.000950	20.732006
167.062528	-3.011200	3.815700	-11.489000	22.098142	0.000950	20.697747
168.057210	-2.995800	3.815400	-11.428000	22.094846	0.000950	20.702508
169.055837	-2.992500	3.814600	-11.414000	22.121072	0.000950	20.724025
170.056638	-2.991800	3.814400	-11.411000	22.122187	0.000951	20.708070
171.055192	-3.017900	3.815200	-11.511000	22.133583	0.000952	20.688658
172.057347	-2.995500	3.814900	-11.426000	22.155309	0.000953	20.699979
173.058799	-3.010900	3.814200	-11.483000	22.163765	0.000952	20.713661
174.058127	-2.995300	3.814300	-11.424000	22.145590	0.000953	20.694042
175.053826	-3.011400	3.814600	-11.486000	22.157233	0.000952	20.692896
176.059067	-3.014300	3.813000	-11.493000	22.160193	0.000956	20.702972
177.058691	-2.997500	3.813300	-11.429000	22.168742	0.000955	20.691142
178.056005	-2.986300	3.812500	-11.384000	22.185372	0.000956	20.710638
179.057134	-3.002700	3.813400	-11.448000	22.196807	0.000955	20.705491
180.057639	-3.022500	3.811900	-11.520000	22.195011	0.000957	20.715548
181.059413	-2.998200	3.812800	-11.431000	22.200116	0.000958	20.709279
182.056614	-2.989300	3.812800	-11.397000	22.191770	0.000958	20.699499
183.057985	-3.007400	3.811100	-11.460000	22.220534	0.000957	20.725456
184.053683	-2.974400	3.813400	-11.340000	22.242713	0.000958	20.688390
185.057947	-3.004200	3.811000	-11.448000	22.232965	0.000959	20.711349
186.060878	-3.000400	3.811700	-11.436000	22.233784	0.000958	20.704581
187.058559	-2.991800	3.812900	-11.406000	22.261176	0.000959	20.706878
188.053683	-2.995100	3.812200	-11.417000	22.262996	0.000961	20.707278
189.057541	-3.003800	3.811100	-11.446000	22.263440	0.000959	20.701084
190.060360	-2.986800	3.811400	-11.384000	22.270568	0.000962	20.699686
191.057186	-3.002300	3.809100	-11.435000	22.274277	0.000960	20.685855
192.063601	-3.004800	3.810500	-11.448000	22.280428	0.000962	20.719518
193.057250	-3.012200	3.810100	-11.476000	22.327436	0.000962	20.695463
194.054974	-2.989300	3.810600	-11.389000	22.300513	0.000962	20.714025
195.061189	-3.019500	3.809100	-11.499000	22.323070	0.000964	20.715275
196.060838	-3.011100	3.808700	-11.467000	22.331963	0.000964	20.705213
197.055474	-3.006500	3.807900	-11.447000	22.328126	0.000963	20.716070
198.056292	-2.996100	3.809700	-11.413000	22.304543	0.000965	20.716163
199.061008	-2.975600	3.809900	-11.336000	22.344546	0.000964	20.715442
200.059915	-2.997900	3.808100	-11.416000	22.334824	0.000965	20.711871
201.061999	-3.013400	3.807600	-11.473000	22.314309	0.000966	20.722149
202.056751	-3.001000	3.808000	-11.426000	22.316080	0.000966	20.720129
203.057795	-3.007800	3.806400	-11.447000	22.306155	0.000967	20.716829
204.056772	-2.992400	3.808300	-11.395000	22.328633	0.000965	20.732225
205.062806	-2.980100	3.808300	-11.348000	22.359411	0.000968	20.714681
206.056509	-3.006000	3.806200	-11.441000	22.324845	0.000968	20.715155
207.062952	-2.993000	3.806500	-11.392000	22.347568	0.000970	20.703769
208.060077	-2.986800	3.807700	-11.372000	22.358281	0.000968	20.719239
209.059123	-2.989300	3.805300	-11.374000	22.394815	0.000969	20.707459
210.065032	-3.003000	3.805100	-11.425000	22.365483	0.000970	20.722657
211.059309	-2.998600	3.805200	-11.409000	22.376945	0.000971	20.718014
212.060320	-2.994700	3.805700	-11.395000	22.375470	0.000970	20.726495
213.060333	-2.973700	3.805900	-11.315000	22.371288	0.000972	20.709504
214.062978	-2.991000	3.805700	-11.383000	22.403278	0.000973	20.718779
215.059719	-3.016100	3.804200	-11.472000	22.383071	0.000973	20.718933
216.063544	-3.002100	3.803700	-11.418000	22.379756	0.000975	20.735529
217.072162	-2.985100	3.805900	-11.359000	22.403599	0.000973	20.725265
218.061388	-3.004100	3.803500	-11.425000	22.421044	0.000974	20.701955
219.068963	-3.011300	3.804400	-11.456000	22.415362	0.000974	20.734200
220.074533	-3.001000	3.802300	-11.410000	22.426000	0.000975	20.714032
221.062638	-3.010700	3.801500	-11.443000	22.414533	0.000975	20.734318
222.072035	-3.006100	3.802700	-11.429000	22.408333	0.000977	20.732852
223.064682	-2.985900	3.802900	-11.354000	22.433719	0.000976	20.726978
224.064533	-3.021400	3.800900	-11.482000	22.442118	0.000977	20.723061
225.064992	-3.010200	3.803000	-11.447000	22.456292	0.000978	20.732041
226.066397	-2.998100	3.802500	-11.399000	22.468657	0.000979	20.723560
227.067471	-2.997000	3.802100	-11.393000	22.490179	0.000979	20.711923
228.061985	-2.971300	3.802000	-11.296000	22.483126	0.000979	20.726672
229.070870	-3.009000	3.800500	-11.434000	22.487940	0.000980	20.713000
230.068167	-2.991800	3.802200	-11.374000	22.488852	0.000980	20.736199
231.068075	-3.023500	3.799400	-11.486000	22.525307	0.000981	20.750425
232.068202	-3.011100	3.800900	-11.444000	22.515168	0.000979	20.721777
233.065772	-2.996700	3.800400	-11.387000	22.529243	0.000983	20.738244
234.068833	-2.993900	3.799700	-11.374000	22.539658	0.000982	20.738244
235.066090	-2.988600	3.799400	-11.353000	22.544067	0.000982	20.749298
236.070635	-2.996000	3.799300	-11.381000	22.548353	0.000983	20.750746
237.074330	-2.992900	3.799700	-11.371000	22.547381	0.000984	20.725589
238.072693	-2.994800	3.799000	-11.375000	22.569454	0.000984	20.732050
239.067617	-2.993700	3.797700	-11.369000	22.572270	0.000982	20.727284
240.071158	-2.997600	3.798600	-11.385000	22.592499	0.000985	20.724784
241.074255	-2.990500	3.798200	-11.357000	22.640361	0.000985	20.719143
242.068524	-2.985600	3.798500	-11.339000	22.617535	0.000987	20.749861
243.075929	-2.983500	3.798000	-11.329000	22.628329	0.000987	20.736490
244.072199	-2.982600	3.797700	-11.326000	22.627580	0.000988	20.738110
245.075646	-2.997100	3.796800	-11.377000	22.644474	0.000988	20.728953
246.070693	-3.039700	3.796000	-11.537000	22.678528	0.000988	20.712801
247.073399	-2.999500	3.797400	-11.389000	22.681762	0.000988	20.724576
248.069370	-2.994000	3.795700	-11.363000	22.699277	0.000990	20.741173
249.069523	-2.986800	3.796200	-11.337000	22.693952	0.000989	20.744373
250.071171	-2.994800	3.795300	-11.365000	22.690209	0.000989	20.742521
251.069221	-2.988900	3.796300	-11.346000	22.696639	0.000992	20.739478
252.072368	-2.979100	3.795800	-11.306000	22.719853	0.000991	20.753249
253.076340	-3.003800	3.795600	-11.400000	22.730795	0.000991	20.752829
254.073997	-3.007600	3.794000	-11.410000	22.757021	0.000993	20.750651
255.074188	-2.982300	3.795800	-11.320000	22.741031	0.000991	20.732736
256.076909	-2.992700	3.794900	-11.355000	22.750147	0.000992	20.746136
257.077439	-3.001900	3.794800	-11.391000	22.762829	0.000993	20.745564
258.074507	-2.990300	3.793700	-11.343000	22.772671	0.000993	20.746413
259.073663	-2.998100	3.791700	-11.366000	22.803210	0.000994	20.733857
260.074860	-2.991800	3.792600	-11.346000	22.806671	0.000993	20.731634
261.076398	-2.988800	3.793800	-11.338000	22.782808	0.000994	20.761310
262.075834	-3.003200	3.792700	-11.388000	22.786772	0.000995	20.735408
263.078091	-3.008400	3.792200	-11.407000	22.789385	0.000995	20.738974
264.073376	-3.000100	3.793200	-11.378000	22.798679	0.000996	20.730741
265.077713	-3.000500	3.790800	-11.373000	22.814417	0.000997	20.735601
266.078743	-3.024600	3.790700	-11.463000	22.801514	0.000998	20.739271
267.076311	-3.004000	3.791300	-11.388000	22.825486	0.000998	20.723455
268.082730	-3.028500	3.789700	-11.476000	22.832008	0.000998	20.766501
269.080938	-3.006700	3.790600	-11.396000	22.822562	0.001000	20.744709
270.073967	-3.014900	3.790200	-11.426000	22.843510	0.001000	20.756686
271.077548	-3.032600	3.789400	-11.489000	22.837757	0.000999	20.740491
272.079752	-3.001000	3.789000	-11.370000	22.821837	0.001000	20.758208
