LabVIEW Measurement	
Writer_Version	2
Reader_Version	2
Separator	Tab
Decimal_Separator	.
Multi_Headings	No
X_Columns	One
Time_Pref	Absolute
Operator	admin
Description	Clolumns are: time, Current, Voltage, Power, Battery Temp, and Chamber Temp
Date	2024/08/16
Time	13:06:06.104549407958984375
***End_of_Header***	
	
Channels	6						
Samples	1	1	1	1	1	1	
Date	2024/09/01	2024/09/01	2024/09/01	2024/09/01	2024/09/01	2024/09/01	
Time	23:30:29.2376418113708496094	23:30:29.24578094482421875	23:30:29.2547497749328613281	23:30:29.2171182632446289063	23:30:29.2171182632446289063	23:30:29.2171182632446289063	
X_Dimension	Time	Time	Time	Time	Time	Time	
X0	0.0000000000000000E+0	0.0000000000000000E+0	0.0000000000000000E+0	0.0000000000000000E+0	0.0000000000000000E+0	0.0000000000000000E+0	
Delta_X	1.000000	1.000000	1.000000	1.000000	1.000000	1.000000	
***End_of_Header***							
X_Value	Untitled	Untitled 1	Untitled 2	Untitled 3	Untitled 4	Untitled 5	Comment
0.000000	0.031012	4.099600	0.127000	21.030076	0.000942	20.862721
0.995060	-3.013600	3.933300	-11.852000	21.041855	0.000943	20.857908
1.996119	-3.010600	3.926400	-11.820000	21.035245	0.000940	20.878322
2.996478	-2.979500	3.922200	-11.685000	21.012016	0.000939	20.876425
3.995676	-2.983900	3.918900	-11.693000	21.045753	0.000938	20.846634
4.995805	-2.982900	3.917000	-11.683000	21.026391	0.000937	20.839123
5.995659	-2.988300	3.912900	-11.692000	21.007930	0.000937	20.840572
6.994855	-2.997800	3.910300	-11.721000	21.028416	0.000935	20.869121
7.996475	-3.015100	3.906100	-11.776000	21.048977	0.000932	20.860290
8.995193	-3.009600	3.906000	-11.755000	21.030539	0.000934	20.863185
9.995604	-2.985600	3.905600	-11.660000	21.055267	0.000935	20.867054
10.996363	-2.991500	3.903300	-11.676000	21.046660	0.000933	20.851335
11.995236	-2.992700	3.901700	-11.676000	21.062032	0.000930	20.848692
12.996472	-3.004200	3.898600	-11.711000	21.046365	0.000931	20.842505
13.997317	-3.004200	3.898100	-11.710000	21.064779	0.000932	20.850492
14.998267	-2.991900	3.897800	-11.660000	21.058668	0.000930	20.846750
15.997923	-2.997900	3.896800	-11.681000	21.059917	0.000928	20.851792
16.999332	-3.006100	3.894600	-11.707000	21.078081	0.000930	20.835348
17.998630	-3.001500	3.894800	-11.690000	21.075662	0.000928	20.843834
18.999012	-2.999600	3.892500	-11.675000	21.080131	0.000928	20.853518
19.999509	-3.002900	3.891800	-11.686000	21.062342	0.000927	20.850899
21.002401	-3.012500	3.892000	-11.724000	21.079209	0.000927	20.836950
21.999062	-2.997600	3.890300	-11.661000	21.088293	0.000927	20.854570
23.002500	-2.992200	3.889800	-11.638000	21.078064	0.000923	20.841969
24.001528	-2.996500	3.887500	-11.648000	21.080336	0.000922	20.831913
25.005467	-2.998200	3.888400	-11.656000	21.103689	0.000925	20.833935
26.001066	-2.999300	3.886300	-11.655000	21.113171	0.000924	20.851954
27.001009	-3.006700	3.886700	-11.685000	21.100374	0.000923	20.834413
28.002944	-2.994700	3.885600	-11.635000	21.113024	0.000922	20.849437
29.000924	-2.996200	3.886400	-11.644000	21.122506	0.000922	20.840904
30.004093	-2.995000	3.885100	-11.635000	21.117643	0.000922	20.839832
31.003550	-3.008400	3.882800	-11.680000	21.132886	0.000921	20.848916
32.001550	-3.023000	3.882700	-11.735000	21.136106	0.000921	20.844076
33.000398	-3.020100	3.882700	-11.724000	21.154320	0.000921	20.845226
34.005743	-2.999000	3.882900	-11.645000	21.156390	0.000920	20.841133
35.002685	-2.981300	3.882800	-11.575000	21.167845	0.000919	20.841211
36.003295	-2.992000	3.883200	-11.617000	21.173309	0.000919	20.835772
37.006783	-3.004700	3.881500	-11.662000	21.152079	0.000920	20.843933
38.002249	-3.002300	3.880500	-11.649000	21.176430	0.000919	20.836049
39.003318	-2.984100	3.880700	-11.579000	21.175656	0.000918	20.836697
40.007295	-2.991700	3.878900	-11.603000	21.200280	0.000917	20.842363
41.003247	-3.009700	3.878900	-11.673000	21.192498	0.000914	20.842165
42.003026	-2.998900	3.879300	-11.633000	21.184615	0.000919	20.828590
43.005505	-2.993400	3.879200	-11.610000	21.211160	0.000918	20.829540
44.002618	-2.991400	3.877700	-11.598000	21.203752	0.000918	20.836353
45.003456	-3.000400	3.879100	-11.637000	21.221516	0.000915	20.826624
46.009664	-2.996400	3.876900	-11.615000	21.212961	0.000918	20.839876
47.006789	-3.016300	3.877000	-11.693000	21.243570	0.000917	20.828297
48.006164	-3.007800	3.875300	-11.655000	21.257266	0.000915	20.829671
49.008262	-2.979800	3.874900	-11.543000	21.238309	0.000916	20.827302
50.009372	-2.981200	3.875500	-11.552000	21.250060	0.000913	20.824833
51.006897	-2.999500	3.875800	-11.624000	21.282317	0.000916	20.809687
52.008217	-2.988500	3.874800	-11.579000	21.267202	0.000916	20.820170
53.007217	-2.993500	3.872400	-11.590000	21.261362	0.000913	20.825708
54.005841	-3.002100	3.872800	-11.625000	21.289653	0.000916	20.824613
55.010596	-3.013200	3.873800	-11.672000	21.279104	0.000915	20.829707
56.009343	-2.977900	3.873200	-11.534000	21.301403	0.000915	20.818350
57.010487	-3.006300	3.871900	-11.639000	21.296791	0.000915	20.834598
58.009490	-3.009800	3.871600	-11.651000	21.315227	0.000915	20.812265
59.008603	-3.011300	3.872400	-11.659000	21.293500	0.000915	20.806651
60.009398	-2.996500	3.871800	-11.600000	21.310813	0.000914	20.851470
61.010126	-2.981700	3.873700	-11.549000	21.338827	0.000913	20.814065
62.008565	-2.999500	3.871100	-11.611000	21.342021	0.000915	20.823899
63.010755	-3.001400	3.871000	-11.617000	21.339628	0.000915	20.826246
64.011413	-2.963300	3.872500	-11.475000	21.318378	0.000913	20.815418
65.012219	-3.024200	3.869800	-11.701000	21.333521	0.000913	20.811127
66.011653	-2.999400	3.870700	-11.608000	21.341655	0.000914	20.822110
67.019174	-2.998200	3.870200	-11.603000	21.382786	0.000914	20.818691
68.012233	-3.008400	3.869000	-11.638000	21.370689	0.000911	20.817494
69.011090	-3.006000	3.869200	-11.630000	21.388077	0.000914	20.853382
70.014660	-3.005800	3.868900	-11.628000	21.404566	0.000913	20.848068
71.012240	-2.994300	3.867000	-11.578000	21.391672	0.000911	20.808616
72.013515	-3.007200	3.867300	-11.628000	21.407860	0.000911	20.805846
73.019207	-3.017600	3.866900	-11.668000	21.409459	0.000913	20.838739
74.014975	-3.002700	3.868500	-11.615000	21.423104	0.000911	20.825839
75.014580	-3.012000	3.868800	-11.651000	21.408290	0.000913	20.808646
76.019018	-2.973700	3.868100	-11.501000	21.422855	0.000912	20.849297
77.015570	-2.982200	3.866900	-11.531000	21.409588	0.000913	20.827489
78.014480	-2.986900	3.867800	-11.551000	21.414129	0.000911	20.819704
79.016264	-3.020500	3.866100	-11.676000	21.420715	0.000913	20.827242
80.016247	-2.994500	3.867400	-11.579000	21.429521	0.000912	20.824199
81.018139	-2.995000	3.867000	-11.580000	21.448977	0.000911	20.819010
82.017153	-3.015700	3.863600	-11.650000	21.447081	0.000911	20.825174
83.017885	-2.998000	3.865900	-11.588000	21.449676	0.000911	20.845313
84.017354	-2.991000	3.865000	-11.559000	21.461799	0.000912	20.852701
85.017885	-3.000900	3.865100	-11.597000	21.471276	0.000914	20.822830
86.017269	-3.005000	3.865500	-11.613000	21.469807	0.000911	20.817092
87.017041	-3.006800	3.864400	-11.619000	21.476019	0.000913	20.823308
88.016630	-3.019000	3.862700	-11.661000	21.483776	0.000914	20.823009
89.015838	-3.007400	3.863100	-11.616000	21.512434	0.000913	20.820864
90.018361	-3.016600	3.862900	-11.651000	21.480486	0.000912	20.817821
91.019605	-3.007000	3.862600	-11.613000	21.497671	0.000914	20.807041
92.020164	-3.012600	3.863000	-11.636000	21.504156	0.000911	20.829651
93.019086	-3.004100	3.862400	-11.602000	21.518274	0.000911	20.821492
94.022666	-3.011500	3.863100	-11.632000	21.519719	0.000912	20.834317
95.020227	-3.019400	3.861500	-11.658000	21.507851	0.000911	20.828606
96.022394	-2.997600	3.862200	-11.576000	21.508899	0.000912	20.821120
97.021578	-3.010000	3.863000	-11.626000	21.539526	0.000915	20.816680
98.020448	-3.013200	3.860800	-11.633000	21.529750	0.000912	20.840562
99.021743	-2.977500	3.861000	-11.495000	21.533418	0.000914	20.833327
100.021689	-2.977000	3.862900	-11.499000	21.562249	0.000910	20.818555
101.027176	-3.003100	3.861200	-11.594000	21.560978	0.000913	20.832455
102.022946	-3.001500	3.860600	-11.586000	21.569359	0.000913	20.848902
103.022014	-3.009200	3.860500	-11.616000	21.586442	0.000913	20.839918
104.023146	-3.000600	3.859900	-11.580000	21.590633	0.000913	20.822302
105.022367	-3.007300	3.859900	-11.606000	21.624327	0.000913	20.838475
106.021446	-3.015300	3.859500	-11.636000	21.602531	0.000914	20.833733
107.024741	-2.992000	3.861000	-11.551000	21.634381	0.000913	20.833838
108.023888	-2.993900	3.860100	-11.556000	21.637226	0.000912	20.830046
109.022969	-2.997600	3.859600	-11.568000	21.631688	0.000912	20.843945
110.024190	-3.011500	3.859600	-11.623000	21.651467	0.000912	20.835289
111.022964	-3.012400	3.859200	-11.624000	21.657077	0.000911	20.838533
112.022717	-2.994700	3.859400	-11.556000	21.650396	0.000914	20.844174
113.024560	-2.986800	3.859100	-11.525000	21.659922	0.000916	20.839009
114.022165	-2.976000	3.860000	-11.486000	21.659525	0.000912	20.823914
115.023549	-2.991800	3.857900	-11.541000	21.642295	0.000915	20.839387
116.024652	-2.986100	3.858700	-11.521000	21.667782	0.000914	20.856357
117.022274	-2.989900	3.858300	-11.536000	21.692497	0.000917	20.846004
118.024737	-2.998100	3.857900	-11.565000	21.666263	0.000917	20.836345
119.026079	-3.027800	3.857300	-11.678000	21.678110	0.000915	20.842511
120.025290	-2.975000	3.859500	-11.481000	21.714543	0.000916	20.831084
121.024341	-2.984600	3.857900	-11.514000	21.707063	0.000917	20.831184
122.024140	-2.994900	3.855600	-11.545000	21.713622	0.000916	20.831111
123.023675	-2.983800	3.857400	-11.509000	21.709335	0.000917	20.842941
124.026704	-3.014800	3.855000	-11.620000	21.736741	0.000916	20.834808
125.025407	-2.988800	3.857700	-11.528000	21.738663	0.000916	20.831042
126.026357	-2.993300	3.854800	-11.537000	21.734449	0.000915	20.849109
127.025806	-2.990100	3.855300	-11.527000	21.750136	0.000916	20.841101
128.033924	-3.004300	3.855100	-11.580000	21.759265	0.000915	20.835065
129.028589	-2.983700	3.855900	-11.504000	21.752484	0.000919	20.850089
130.029404	-2.983700	3.855800	-11.504000	21.768842	0.000917	20.833270
131.030088	-3.001900	3.854500	-11.570000	21.772336	0.000918	20.849094
132.028812	-3.016000	3.853600	-11.621000	21.779469	0.000919	20.843432
133.031765	-3.015400	3.854600	-11.622000	21.786227	0.000917	20.853514
134.030411	-2.995800	3.853600	-11.544000	21.788650	0.000918	20.858784
135.028618	-2.979300	3.853700	-11.478000	21.772592	0.000918	20.858834
136.028604	-2.999400	3.852900	-11.554000	21.779703	0.000917	20.862157
137.033906	-2.985200	3.855000	-11.507000	21.793617	0.000920	20.845738
138.030329	-2.985700	3.854100	-11.506000	21.799178	0.000918	20.844666
139.031821	-2.976200	3.854600	-11.472000	21.793222	0.000921	20.855300
140.033526	-2.984100	3.853900	-11.499000	21.798431	0.000923	20.852927
141.030668	-3.001100	3.852800	-11.560000	21.843440	0.000923	20.860991
142.031854	-2.981000	3.853600	-11.487000	21.827809	0.000922	20.847244
143.033261	-3.012100	3.852500	-11.603000	21.845514	0.000922	20.853585
144.031513	-3.011500	3.853100	-11.602000	21.852620	0.000919	20.860697
145.030982	-2.996900	3.852000	-11.542000	21.869004	0.000921	20.865242
146.035164	-2.975100	3.853800	-11.464000	21.875588	0.000921	20.858082
147.031262	-3.027700	3.851100	-11.658000	21.892193	0.000920	20.864271
148.031044	-3.006900	3.851700	-11.581000	21.922163	0.000922	20.864398
149.035616	-3.020200	3.851800	-11.632000	21.910421	0.000923	20.858809
150.030787	-2.997600	3.851500	-11.545000	21.918649	0.000923	20.859458
151.031076	-3.011600	3.851200	-11.597000	21.928373	0.000925	20.876303
152.032280	-3.000100	3.850200	-11.551000	21.923417	0.000922	20.844318
153.034160	-2.991100	3.850500	-11.516000	21.953508	0.000925	20.864954
154.033934	-2.990400	3.849200	-11.509000	21.938603	0.000925	20.880853
155.036485	-3.002300	3.850100	-11.558000	21.961765	0.000926	20.874641
156.034750	-2.986100	3.850400	-11.497000	21.953038	0.000924	20.874915
157.038321	-2.995200	3.850900	-11.533000	21.981885	0.000927	20.854005
158.037428	-3.009900	3.847100	-11.578000	21.979919	0.000925	20.883804
159.034770	-3.006600	3.849600	-11.573000	21.969824	0.000926	20.880337
160.036698	-3.013100	3.847300	-11.591000	21.979099	0.000925	20.875397
161.035951	-3.000000	3.848200	-11.544000	21.984164	0.000928	20.871458
162.035629	-2.985000	3.849700	-11.490000	21.996504	0.000928	20.868639
163.036534	-2.977200	3.849600	-11.461000	22.005132	0.000927	20.871112
164.036396	-2.984100	3.848400	-11.482000	22.014282	0.000928	20.868418
165.036721	-2.994100	3.847500	-11.519000	22.026000	0.000928	20.885363
166.036880	-2.999200	3.846400	-11.535000	22.036595	0.000925	20.878901
167.037138	-2.999500	3.847800	-11.541000	22.040485	0.000929	20.869044
168.037083	-2.995200	3.846400	-11.520000	22.052879	0.000926	20.877184
169.037339	-3.008500	3.845700	-11.569000	22.047869	0.000928	20.872643
170.037901	-3.009200	3.846100	-11.573000	22.063649	0.000929	20.878009
171.039103	-2.993900	3.846100	-11.514000	22.064198	0.000932	20.874765
172.039543	-3.008000	3.845600	-11.567000	22.077016	0.000930	20.893760
173.039561	-2.986000	3.847100	-11.487000	22.065075	0.000931	20.891763
174.039228	-3.014000	3.843700	-11.583000	22.073452	0.000929	20.892563
175.039769	-2.992700	3.845800	-11.509000	22.059494	0.000934	20.864841
176.038791	-3.004100	3.846000	-11.553000	22.072607	0.000932	20.874649
177.040225	-3.017400	3.844500	-11.599000	22.104565	0.000931	20.879616
178.040385	-3.000900	3.845100	-11.538000	22.105490	0.000934	20.894291
179.041197	-3.016500	3.843900	-11.594000	22.126604	0.000933	20.879395
180.044084	-2.987100	3.844600	-11.482000	22.123890	0.000932	20.871936
181.048793	-2.994000	3.844400	-11.507000	22.144355	0.000933	20.889579
182.041019	-3.004500	3.843400	-11.547000	22.120727	0.000935	20.903855
183.044700	-2.991400	3.844300	-11.499000	22.137007	0.000933	20.876534
184.045480	-3.005900	3.843900	-11.552000	22.160910	0.000937	20.873438
185.041606	-2.976900	3.845000	-11.444000	22.154831	0.000935	20.907178
186.043484	-2.981200	3.843000	-11.456000	22.174325	0.000936	20.899196
187.044665	-3.010400	3.842500	-11.566000	22.156605	0.000936	20.887145
188.043761	-3.012700	3.841900	-11.574000	22.194965	0.000937	20.879559
189.057342	-3.007200	3.844000	-11.559000	22.175152	0.000937	20.907609
190.050839	-2.996300	3.843400	-11.515000	22.201823	0.000935	20.912500
191.046248	-2.980500	3.843100	-11.454000	22.199733	0.000937	20.889547
192.049290	-3.006600	3.841100	-11.546000	22.228923	0.000937	20.903600
193.048852	-3.014900	3.840600	-11.578000	22.235676	0.000938	20.896611
194.046782	-3.000700	3.841800	-11.527000	22.229296	0.000940	20.885483
195.049432	-2.991500	3.841600	-11.489000	22.257141	0.000938	20.889180
196.047738	-2.994900	3.842100	-11.505000	22.251062	0.000938	20.902059
197.048138	-3.011600	3.840400	-11.565000	22.255424	0.000939	20.904055
198.050532	-3.024600	3.839500	-11.612000	22.293834	0.000939	20.899367
199.054901	-3.001600	3.841000	-11.527000	22.267117	0.000940	20.928089
200.051708	-3.004100	3.840000	-11.534000	22.283070	0.000942	20.881478
201.055279	-2.990100	3.840800	-11.484000	22.277988	0.000941	20.910053
202.052020	-3.000900	3.840100	-11.522000	22.273879	0.000940	20.911628
203.051439	-2.985300	3.840100	-11.463000	22.253339	0.000942	20.896752
204.049783	-3.016900	3.838400	-11.579000	22.280261	0.000941	20.905690
205.050900	-3.014500	3.838900	-11.571000	22.282528	0.000945	20.893737
206.051972	-3.007000	3.838000	-11.539000	22.286219	0.000943	20.912603
207.052875	-3.007000	3.839500	-11.544000	22.293800	0.000943	20.890799
208.051603	-2.992900	3.839400	-11.490000	22.305438	0.000943	20.890598
209.049845	-2.992900	3.838200	-11.486000	22.312941	0.000944	20.914231
210.050540	-3.008500	3.837600	-11.544000	22.333030	0.000945	20.909691
211.051180	-2.999500	3.838700	-11.512000	22.302501	0.000947	20.908519
212.050916	-2.990400	3.837500	-11.475000	22.332260	0.000947	20.907972
213.053668	-3.020200	3.836800	-11.586000	22.326929	0.000948	20.928235
214.052248	-2.995400	3.837900	-11.495000	22.337747	0.000947	20.925318
215.051856	-2.993700	3.838600	-11.490000	22.324293	0.000949	20.905684
216.052870	-3.012900	3.836100	-11.557000	22.329401	0.000947	20.920281
217.051742	-2.995200	3.836900	-11.492000	22.313953	0.000948	20.896753
218.052046	-3.028600	3.836200	-11.618000	22.309568	0.000949	20.921284
219.053989	-2.997700	3.836600	-11.500000	22.314055	0.000949	20.914398
220.053360	-3.001200	3.835700	-11.510000	22.303738	0.000949	20.923032
221.053560	-2.990300	3.837000	-11.473000	22.307877	0.000951	20.937606
222.053003	-3.007800	3.834100	-11.531000	22.321985	0.000951	20.928975
223.052857	-2.996800	3.835300	-11.491000	22.314063	0.000952	20.933369
224.052773	-2.988100	3.836000	-11.461000	22.324432	0.000949	20.925736
225.053222	-3.004400	3.834900	-11.520000	22.336170	0.000953	20.925162
226.054206	-3.003100	3.835300	-11.516000	22.343426	0.000950	20.933374
227.056501	-2.990800	3.835600	-11.470000	22.346419	0.000954	20.933053
228.056890	-3.013300	3.835100	-11.555000	22.373384	0.000954	20.939191
229.059471	-2.977400	3.834900	-11.416000	22.378994	0.000954	20.935800
230.056581	-3.002200	3.833800	-11.508000	22.408127	0.000952	20.938421
231.056374	-2.987000	3.833100	-11.448000	22.407731	0.000956	20.933284
232.061786	-2.998100	3.834300	-11.495000	22.411274	0.000954	20.944416
233.058638	-2.996700	3.833500	-11.486000	22.419122	0.000956	20.931415
234.057772	-2.995500	3.833400	-11.482000	22.424609	0.000956	20.944968
235.064296	-3.023800	3.833800	-11.592000	22.444622	0.000956	20.937984
236.057121	-2.984900	3.833700	-11.442000	22.435902	0.000958	20.932571
237.058709	-2.965100	3.833500	-11.366000	22.422397	0.000957	20.928530
238.062420	-2.991100	3.832400	-11.462000	22.456066	0.000958	20.941857
239.058312	-2.994500	3.832600	-11.476000	22.473764	0.000958	20.945830
240.058133	-3.014600	3.832800	-11.553000	22.477452	0.000960	20.957582
241.063034	-2.999300	3.831400	-11.491000	22.467113	0.000961	20.932059
242.059712	-3.011700	3.832600	-11.541000	22.482367	0.000960	20.956340
243.060777	-3.014900	3.829700	-11.545000	22.467366	0.000958	20.943691
244.066372	-2.988300	3.832600	-11.452000	22.508311	0.000960	20.960512
245.060013	-3.002900	3.830600	-11.501000	22.510581	0.000962	20.940028
246.060092	-2.994800	3.831300	-11.473000	22.510107	0.000961	20.946665
247.062291	-3.008700	3.830200	-11.523000	22.494987	0.000963	20.959022
248.060722	-3.007000	3.831100	-11.519000	22.513354	0.000961	20.956080
249.060412	-3.002500	3.830400	-11.499000	22.505831	0.000964	20.949495
250.061470	-3.023300	3.827900	-11.572000	22.519163	0.000964	20.948148
251.059496	-2.995600	3.829900	-11.471000	22.555271	0.000963	20.956335
252.060616	-3.003600	3.828200	-11.498000	22.556719	0.000963	20.957785
253.064035	-2.996400	3.828300	-11.470000	22.543291	0.000966	20.965672
254.061873	-2.995100	3.828100	-11.465000	22.523356	0.000964	20.952821
255.061687	-2.991500	3.829700	-11.455000	22.552093	0.000966	20.948411
256.062590	-2.992100	3.828100	-11.452000	22.546437	0.000965	20.964081
257.060775	-2.990700	3.829200	-11.451000	22.549703	0.000966	20.935114
258.060790	-2.981900	3.827200	-11.411000	22.541883	0.000966	20.968529
259.067210	-2.986400	3.828700	-11.432000	22.535353	0.000969	20.971471
260.062338	-3.002900	3.827000	-11.491000	22.545350	0.000968	20.964889
261.061291	-2.985600	3.828600	-11.430000	22.564064	0.000969	20.941910
262.065712	-2.975500	3.827300	-11.387000	22.581012	0.000970	20.989697
263.063651	-3.011000	3.826300	-11.520000	22.572090	0.000970	20.953266
264.062294	-2.999900	3.826600	-11.478000	22.579767	0.000968	20.964272
265.064848	-2.995600	3.827300	-11.464000	22.590981	0.000970	20.953221
266.063760	-2.993700	3.827100	-11.456000	22.619140	0.000972	20.989005
267.063242	-3.012800	3.825700	-11.525000	22.632423	0.000974	20.980499
268.064989	-3.006400	3.824100	-11.496000	22.652133	0.000973	20.967052
269.066460	-2.992300	3.825900	-11.446000	22.674359	0.000973	20.954229
270.069390	-3.010800	3.826200	-11.518000	22.660508	0.000972	20.969277
271.065256	-2.984100	3.825600	-11.415000	22.668932	0.000973	20.968705
272.063622	-2.986800	3.825900	-11.426000	22.690183	0.000975	20.971500
