LabVIEW Measurement	
Writer_Version	2
Reader_Version	2
Separator	Tab
Decimal_Separator	.
Multi_Headings	No
X_Columns	One
Time_Pref	Absolute
Operator	admin
Description	Clolumns are: time, Current, Voltage, Power, Battery Temp, and Chamber Temp
Date	2024/08/16
Time	13:06:06.104549407958984375
***End_of_Header***	
	
Channels	6						
Samples	1	1	1	1	1	1	
Date	2024/09/08	2024/09/08	2024/09/08	2024/09/08	2024/09/08	2024/09/08	
Time	09:00:04.8581337928771972656	09:00:04.8656849861145019531	09:00:04.8730077743530273437	09:00:04.84090423583984375	09:00:04.84090423583984375	09:00:04.84090423583984375	
X_Dimension	Time	Time	Time	Time	Time	Time	
X0	0.0000000000000000E+0	0.0000000000000000E+0	0.0000000000000000E+0	0.0000000000000000E+0	0.0000000000000000E+0	0.0000000000000000E+0	
Delta_X	1.000000	1.000000	1.000000	1.000000	1.000000	1.000000	
***End_of_Header***							
X_Value	Untitled	Untitled 1	Untitled 2	Untitled 3	Untitled 4	Untitled 5	Comment
0.000000	0.017053	4.099000	0.069854	20.919831	0.000907	20.670426
0.999547	-3.012500	3.926000	-11.826000	20.921401	0.000906	20.654450
2.001405	-2.991800	3.918000	-11.721000	20.906957	0.000906	20.684579
2.999655	-2.993200	3.912300	-11.709000	20.926746	0.000904	20.665488
4.000482	-2.975100	3.909200	-11.629000	20.920035	0.000901	20.662095
5.001989	-3.000800	3.906700	-11.722000	20.917812	0.000903	20.640428
6.002865	-3.004700	3.903100	-11.726000	20.916660	0.000902	20.665831
7.003480	-3.020400	3.899800	-11.778000	20.922153	0.000901	20.674645
8.002057	-3.016900	3.896700	-11.755000	20.920354	0.000902	20.670001
9.002609	-2.971600	3.897800	-11.580000	20.927000	0.000900	20.660525
10.002326	-3.000400	3.893800	-11.682000	20.942163	0.000898	20.668578
11.005489	-2.993100	3.893300	-11.652000	20.940618	0.000900	20.667507
12.006999	-2.988400	3.891100	-11.628000	20.947501	0.000896	20.674392
13.007439	-3.015800	3.889100	-11.728000	20.949814	0.000898	20.657737
14.004538	-3.004600	3.889400	-11.685000	20.972276	0.000895	20.665030
15.006316	-2.987900	3.886500	-11.611000	20.957432	0.000894	20.658244
16.011026	-2.999800	3.886100	-11.657000	20.956059	0.000894	20.651180
17.008788	-3.006000	3.884400	-11.676000	20.962606	0.000895	20.677171
18.012475	-2.984100	3.883900	-11.588000	20.978569	0.000893	20.675119
19.009915	-2.972800	3.883500	-11.544000	20.971655	0.000896	20.672470
20.011006	-2.994400	3.882100	-11.624000	20.972202	0.000892	20.688192
21.014132	-3.003700	3.880400	-11.655000	20.992212	0.000894	20.684971
22.013680	-2.998400	3.880900	-11.634000	20.999527	0.000892	20.669527
23.011108	-2.998100	3.878800	-11.628000	21.002347	0.000891	20.661441
24.010798	-3.015600	3.878200	-11.695000	20.991566	0.000891	20.669151
25.011231	-2.974100	3.878900	-11.535000	21.029336	0.000891	20.668996
26.012243	-2.984400	3.877300	-11.570000	21.026671	0.000891	20.660640
27.014107	-2.979100	3.876600	-11.547000	21.031011	0.000889	20.662136
28.012646	-3.013200	3.876200	-11.677000	21.014346	0.000889	20.681030
29.017054	-3.010800	3.875000	-11.666000	21.047383	0.000888	20.685151
30.014023	-2.996500	3.874600	-11.609000	21.032728	0.000889	20.691357
31.013352	-3.004000	3.871900	-11.630000	21.058507	0.000888	20.670672
32.018076	-3.000900	3.873800	-11.624000	21.048225	0.000888	20.663706
33.015400	-2.991200	3.872400	-11.582000	21.081032	0.000887	20.685617
34.014732	-2.999900	3.872300	-11.615000	21.063337	0.000888	20.680246
35.013435	-2.972900	3.872700	-11.512000	21.072050	0.000888	20.684219
36.014277	-3.003600	3.870600	-11.625000	21.099617	0.000887	20.677180
37.014356	-3.007400	3.870600	-11.640000	21.097026	0.000886	20.684072
38.017689	-3.011000	3.870000	-11.652000	21.090684	0.000886	20.683892
39.015900	-3.013200	3.868000	-11.653000	21.104628	0.000886	20.652791
40.016901	-3.021400	3.868000	-11.685000	21.116854	0.000884	20.672610
41.016460	-2.997900	3.867800	-11.595000	21.119583	0.000886	20.690040
42.018858	-2.990900	3.868600	-11.569000	21.124912	0.000886	20.694423
43.019697	-3.000600	3.866900	-11.602000	21.140081	0.000883	20.675929
44.017851	-2.995000	3.867100	-11.581000	21.132767	0.000885	20.686157
45.019496	-2.996200	3.866900	-11.585000	21.151180	0.000884	20.665219
46.020013	-2.995200	3.866100	-11.579000	21.162514	0.000883	20.687465
47.018934	-2.978600	3.866600	-11.516000	21.172387	0.000884	20.696393
48.021678	-2.993000	3.866100	-11.571000	21.184163	0.000883	20.692052
49.020870	-3.012100	3.865400	-11.642000	21.169241	0.000883	20.700833
50.020197	-3.015500	3.864800	-11.654000	21.200107	0.000882	20.686190
51.020892	-2.994000	3.864200	-11.568000	21.188061	0.000883	20.700219
52.021964	-2.982800	3.863500	-11.523000	21.198285	0.000884	20.704757
53.020109	-3.006300	3.864300	-11.616000	21.220963	0.000883	20.709425
54.021114	-3.000900	3.863300	-11.592000	21.200884	0.000884	20.691234
55.021294	-3.004200	3.862900	-11.604000	21.217743	0.000886	20.684865
56.027916	-2.966200	3.864300	-11.461000	21.237658	0.000882	20.667328
57.026392	-3.011900	3.861500	-11.628000	21.232444	0.000881	20.679183
58.021269	-3.007800	3.862400	-11.616000	21.238132	0.000882	20.703841
59.022242	-3.005400	3.862300	-11.607000	21.258815	0.000882	20.680433
60.020896	-3.008800	3.860700	-11.615000	21.240101	0.000882	20.711976
61.021275	-3.012100	3.861000	-11.629000	21.264225	0.000882	20.691062
62.024711	-3.002000	3.860600	-11.589000	21.274505	0.000882	20.680483
63.022780	-2.971200	3.860600	-11.470000	21.280838	0.000882	20.681603
64.020560	-2.973500	3.860500	-11.477000	21.270958	0.000883	20.696851
65.025921	-3.020100	3.860300	-11.657000	21.280192	0.000882	20.691389
66.022822	-3.009300	3.859300	-11.612000	21.316637	0.000882	20.698453
67.024108	-3.014200	3.858700	-11.630000	21.326042	0.000881	20.698854
68.025436	-3.015700	3.858800	-11.635000	21.311301	0.000881	20.692640
69.026166	-2.983200	3.858100	-11.507000	21.326312	0.000881	20.698649
70.031190	-2.996300	3.858800	-11.561000	21.345792	0.000882	20.711976
71.029306	-3.001400	3.858400	-11.580000	21.356276	0.000881	20.697333
72.029982	-3.004700	3.858700	-11.594000	21.357093	0.000882	20.669699
73.026234	-3.013000	3.857200	-11.621000	21.351684	0.000881	20.693686
74.025101	-2.987200	3.858400	-11.523000	21.366751	0.000880	20.707814
75.029487	-3.012000	3.855900	-11.612000	21.381516	0.000880	20.707888
76.028306	-2.970700	3.857600	-11.459000	21.398071	0.000881	20.715442
77.027274	-2.989000	3.855900	-11.523000	21.392669	0.000881	20.691544
78.026781	-3.006800	3.855700	-11.592000	21.414469	0.000881	20.686802
79.028167	-3.001400	3.855900	-11.571000	21.418235	0.000881	20.695313
80.027401	-3.024100	3.854400	-11.655000	21.413227	0.000882	20.739617
81.028810	-3.007600	3.854100	-11.591000	21.428367	0.000881	20.703554
82.028897	-3.004700	3.853800	-11.578000	21.422533	0.000881	20.705304
83.032538	-3.006400	3.855000	-11.588000	21.447592	0.000880	20.709989
84.027914	-3.007400	3.855000	-11.592000	21.433931	0.000883	20.712441
85.026009	-3.012700	3.853200	-11.607000	21.449594	0.000882	20.704879
86.030997	-2.994300	3.853700	-11.538000	21.453916	0.000880	20.693555
87.029818	-2.993000	3.854900	-11.537000	21.469129	0.000883	20.681749
88.029007	-2.999800	3.853500	-11.558000	21.461220	0.000881	20.708925
89.028382	-2.990100	3.854200	-11.523000	21.493746	0.000883	20.704486
90.027346	-2.981100	3.854200	-11.488000	21.493599	0.000881	20.706710
91.028210	-2.979100	3.853900	-11.479000	21.500110	0.000883	20.700422
92.030930	-2.991100	3.853600	-11.525000	21.529244	0.000883	20.703970
93.028149	-2.998500	3.851700	-11.548000	21.529841	0.000882	20.711680
94.028472	-2.985100	3.853000	-11.500000	21.541262	0.000884	20.692287
95.028277	-3.002800	3.850900	-11.562000	21.527283	0.000882	20.719553
96.028469	-2.999500	3.851100	-11.550000	21.526107	0.000882	20.706521
97.031558	-2.992600	3.851200	-11.524000	21.546286	0.000883	20.721024
98.033017	-2.981600	3.852100	-11.485000	21.557078	0.000882	20.719022
99.033761	-3.015300	3.852000	-11.614000	21.579602	0.000883	20.712162
100.031187	-3.005500	3.851100	-11.573000	21.564987	0.000883	20.712236
101.032037	-3.009400	3.849900	-11.585000	21.584185	0.000883	20.696833
102.033631	-3.008200	3.850300	-11.582000	21.601521	0.000885	20.717027
103.033280	-2.990400	3.850100	-11.513000	21.600443	0.000883	20.712154
104.032055	-3.007900	3.849800	-11.579000	21.590043	0.000884	20.711705
105.035205	-2.995400	3.849400	-11.529000	21.589847	0.000883	20.719570
106.032562	-3.001800	3.848000	-11.550000	21.609445	0.000884	20.704567
107.031233	-2.987700	3.849600	-11.500000	21.617402	0.000887	20.730075
108.035055	-3.007700	3.848700	-11.575000	21.618104	0.000886	20.727459
109.037938	-2.979300	3.849000	-11.466000	21.639337	0.000887	20.711721
110.033980	-2.989400	3.847400	-11.500000	21.647669	0.000887	20.713422
111.031145	-2.999600	3.848500	-11.543000	21.639084	0.000886	20.734703
112.033444	-2.987100	3.849300	-11.497000	21.658608	0.000885	20.711092
113.036457	-2.978600	3.847800	-11.460000	21.672274	0.000885	20.730934
114.034279	-3.026700	3.847900	-11.645000	21.673443	0.000887	20.739216
115.036090	-2.997400	3.846700	-11.529000	21.688604	0.000888	20.711714
116.034579	-2.973300	3.848300	-11.440000	21.690663	0.000887	20.718042
117.034667	-3.013500	3.845700	-11.587000	21.702066	0.000886	20.736567
118.034384	-3.017000	3.846000	-11.603000	21.721508	0.000887	20.730420
119.038301	-2.992000	3.846400	-11.507000	21.727576	0.000888	20.726062
120.036633	-2.999500	3.846400	-11.536000	21.750857	0.000886	20.727550
121.036273	-3.024200	3.845100	-11.627000	21.735173	0.000887	20.730820
122.036225	-2.990600	3.846800	-11.503000	21.731024	0.000888	20.743738
123.034987	-3.020100	3.844800	-11.611000	21.755636	0.000889	20.732333
124.041667	-3.015800	3.845300	-11.596000	21.735909	0.000887	20.723496
125.036330	-3.019200	3.844100	-11.605000	21.758846	0.000889	20.723692
126.042510	-2.990000	3.846600	-11.499000	21.773655	0.000888	20.709115
127.037876	-2.995100	3.843300	-11.510000	21.770290	0.000889	20.726611
128.036902	-2.999400	3.844500	-11.530000	21.775109	0.000889	20.742340
129.038278	-3.025100	3.842400	-11.622000	21.776522	0.000890	20.738065
130.037785	-2.985800	3.844900	-11.478000	21.771809	0.000889	20.738563
131.039637	-3.028300	3.843100	-11.635000	21.797473	0.000890	20.725842
132.038953	-3.016800	3.842100	-11.588000	21.791167	0.000892	20.752723
133.038945	-2.977200	3.844200	-11.444000	21.793895	0.000891	20.745970
134.039464	-2.999700	3.843000	-11.527000	21.822687	0.000888	20.732587
135.040743	-3.008400	3.842400	-11.558000	21.828943	0.000892	20.754023
136.041127	-3.009100	3.841600	-11.558000	21.843955	0.000892	20.731115
137.041118	-3.020800	3.841600	-11.602000	21.821641	0.000893	20.740549
138.039310	-3.020800	3.840100	-11.599000	21.837421	0.000894	20.726945
139.039764	-3.004700	3.842400	-11.543000	21.870280	0.000893	20.736127
140.041688	-2.987800	3.841900	-11.477000	21.859760	0.000893	20.734606
141.039221	-2.970000	3.843100	-11.412000	21.854173	0.000895	20.766474
142.042449	-2.994700	3.840000	-11.499000	21.871856	0.000894	20.762361
143.040290	-2.998200	3.840000	-11.512000	21.873807	0.000894	20.729226
144.038827	-2.983200	3.842200	-11.461000	21.874608	0.000893	20.733821
145.044043	-3.016100	3.839900	-11.580000	21.886696	0.000896	20.753033
146.042760	-3.014400	3.840700	-11.576000	21.926013	0.000897	20.745446
147.040772	-2.981900	3.839500	-11.447000	21.917143	0.000896	20.741783
148.041027	-2.994800	3.839200	-11.497000	21.908167	0.000897	20.767887
149.040540	-3.017800	3.837900	-11.580000	21.946919	0.000898	20.749304
150.042263	-2.973700	3.841000	-11.421000	21.925350	0.000897	20.731981
151.041020	-2.977600	3.840800	-11.435000	21.958582	0.000897	20.753866
152.045431	-2.995100	3.839500	-11.499000	21.961530	0.000897	20.762033
153.041389	-3.013200	3.839200	-11.567000	21.977831	0.000898	20.760807
154.042850	-3.018000	3.837300	-11.580000	21.977202	0.000897	20.739789
155.047650	-2.982800	3.839100	-11.450000	21.979178	0.000900	20.742241
156.041691	-2.992400	3.837800	-11.483000	21.989444	0.000898	20.753940
157.043921	-3.019100	3.837800	-11.586000	21.992465	0.000901	20.742740
158.044539	-3.006700	3.839000	-11.541000	22.002314	0.000899	20.734106
159.043905	-3.007500	3.837000	-11.539000	22.013902	0.000902	20.757562
160.045115	-3.011400	3.837600	-11.555000	22.002257	0.000902	20.758706
161.049526	-3.015600	3.836700	-11.569000	22.003980	0.000900	20.768492
162.048848	-2.996600	3.836600	-11.496000	21.993005	0.000903	20.767462
163.046275	-2.986800	3.837100	-11.459000	22.004274	0.000901	20.777322
164.044393	-3.010500	3.836200	-11.547000	22.006120	0.000902	20.758306
165.048489	-3.004400	3.836300	-11.524000	22.005312	0.000903	20.762713
166.052017	-2.992900	3.836900	-11.481000	22.025418	0.000903	20.775254
167.046755	-3.014900	3.835000	-11.561000	22.036597	0.000904	20.744719
168.046462	-2.985700	3.836100	-11.450000	22.014532	0.000904	20.759614
169.046832	-2.998100	3.836500	-11.501000	22.030383	0.000905	20.774535
170.045927	-3.013500	3.834400	-11.554000	22.028056	0.000906	20.766041
171.047347	-2.993000	3.834500	-11.476000	22.042111	0.000904	20.758773
172.046668	-2.990200	3.835200	-11.467000	22.042005	0.000904	20.773366
173.049572	-3.004400	3.833700	-11.516000	22.044847	0.000908	20.775737
174.049302	-3.012400	3.833900	-11.547000	22.100923	0.000907	20.763597
175.047827	-2.987300	3.834800	-11.456000	22.092700	0.000908	20.770538
176.052788	-2.982100	3.833000	-11.430000	22.110535	0.000906	20.777488
177.047376	-2.991100	3.834400	-11.468000	22.119386	0.000906	20.782556
178.050829	-3.005700	3.834300	-11.524000	22.105243	0.000906	20.768397
179.046827	-2.966400	3.834000	-11.371000	22.114185	0.000907	20.768814
180.049458	-3.009100	3.832700	-11.532000	22.129856	0.000909	20.774072
181.050704	-3.026400	3.831700	-11.594000	22.155854	0.000908	20.785876
182.054103	-2.987300	3.832100	-11.445000	22.155201	0.000909	20.783800
183.051343	-3.013500	3.831400	-11.545000	22.181820	0.000910	20.777734
184.051146	-2.994100	3.832100	-11.471000	22.198241	0.000912	20.789433
185.051091	-2.996000	3.832800	-11.481000	22.202275	0.000910	20.795843
186.052668	-2.980200	3.834000	-11.424000	22.215502	0.000910	20.800552
187.057559	-2.984600	3.831500	-11.434000	22.231596	0.000913	20.783949
188.052492	-2.967800	3.831400	-11.370000	22.237556	0.000909	20.797977
189.053471	-2.995400	3.831000	-11.474000	22.230094	0.000911	20.794299
190.053500	-3.005700	3.831700	-11.515000	22.243795	0.000911	20.798534
191.052947	-2.999100	3.829900	-11.484000	22.235695	0.000913	20.800381
192.053424	-2.979200	3.831900	-11.416000	22.238782	0.000911	20.782609
193.052422	-3.009400	3.828900	-11.522000	22.249396	0.000913	20.795133
194.053111	-2.974700	3.829900	-11.392000	22.267963	0.000914	20.806611
195.059429	-2.998800	3.830000	-11.484000	22.259456	0.000914	20.801412
196.052841	-3.007100	3.828300	-11.511000	22.295469	0.000914	20.793850
197.055629	-2.993100	3.829700	-11.460000	22.281557	0.000915	20.802206
198.056642	-2.997700	3.829400	-11.479000	22.281754	0.000914	20.804299
199.054668	-3.004700	3.828600	-11.501000	22.284497	0.000916	20.805623
200.055061	-2.972100	3.829100	-11.380000	22.294686	0.000916	20.807291
201.056006	-2.992900	3.830100	-11.461000	22.309390	0.000916	20.816324
202.055914	-3.019700	3.828900	-11.561000	22.302785	0.000918	20.801650
203.057310	-2.995200	3.828100	-11.464000	22.300442	0.000918	20.812580
204.055716	-2.995100	3.828000	-11.464000	22.318689	0.000920	20.799557
205.057507	-2.983300	3.828200	-11.420000	22.325139	0.000919	20.797007
206.055453	-3.002700	3.826000	-11.487000	22.336749	0.000918	20.811951
207.056501	-2.992300	3.828100	-11.453000	22.335458	0.000920	20.803547
208.062255	-3.001700	3.827000	-11.486000	22.355493	0.000920	20.801323
209.059529	-3.002500	3.826800	-11.489000	22.354318	0.000920	20.799672
210.057812	-3.010600	3.826800	-11.520000	22.352342	0.000920	20.796272
211.057965	-2.988800	3.825500	-11.433000	22.362760	0.000923	20.804806
212.057028	-3.003600	3.826100	-11.491000	22.375805	0.000921	20.812654
213.056895	-3.015900	3.825500	-11.536000	22.399774	0.000923	20.797776
214.057737	-2.998200	3.826300	-11.471000	22.408517	0.000924	20.817437
215.057586	-3.015000	3.824200	-11.530000	22.411162	0.000923	20.822930
216.059700	-2.986700	3.825800	-11.426000	22.405227	0.000923	20.803711
217.058165	-3.004700	3.824500	-11.490000	22.421726	0.000925	20.806482
218.058189	-3.012600	3.824000	-11.519000	22.414852	0.000926	20.831366
219.058129	-3.015000	3.823800	-11.529000	22.433244	0.000925	20.820861
220.058476	-3.000900	3.823700	-11.474000	22.439228	0.000926	20.809310
221.061238	-3.000500	3.823900	-11.472000	22.425791	0.000926	20.811975
222.059062	-2.978100	3.823400	-11.385000	22.465865	0.000926	20.805640
223.058491	-3.008400	3.823200	-11.500000	22.482264	0.000928	20.808787
224.061602	-2.990600	3.823100	-11.432000	22.495219	0.000929	20.807536
225.060016	-2.995700	3.823600	-11.454000	22.486459	0.000929	20.818678
226.061753	-2.995400	3.822700	-11.448000	22.482198	0.000930	20.816307
227.065529	-3.017700	3.821100	-11.530000	22.506744	0.000929	20.815285
228.061685	-3.010800	3.820800	-11.502000	22.517332	0.000928	20.807397
229.066945	-2.983200	3.823400	-11.405000	22.512556	0.000929	20.824425
230.059889	-2.981700	3.822500	-11.397000	22.550651	0.000931	20.808525
231.062098	-3.001600	3.821500	-11.470000	22.544399	0.000931	20.779977
232.062642	-2.997500	3.822200	-11.457000	22.509642	0.000933	20.795428
233.061118	-2.998400	3.821500	-11.457000	22.518613	0.000932	20.821956
234.065049	-3.005300	3.821800	-11.484000	22.534219	0.000932	20.802499
235.064069	-2.979200	3.821800	-11.385000	22.512792	0.000933	20.798583
236.063997	-2.989400	3.820800	-11.421000	22.538374	0.000933	20.789117
237.063885	-2.986300	3.821400	-11.410000	22.538733	0.000934	20.801330
238.063283	-2.994000	3.820900	-11.438000	22.574044	0.000936	20.801607
239.064026	-3.009400	3.818800	-11.491000	22.589340	0.000936	20.797013
240.066465	-3.004300	3.820300	-11.477000	22.575285	0.000936	20.809014
241.065004	-2.998700	3.819300	-11.450000	22.594229	0.000935	20.794323
242.066075	-3.005700	3.819700	-11.480000	22.601804	0.000938	20.795746
243.066653	-3.007100	3.817800	-11.479000	22.616381	0.000938	20.807501
244.068659	-3.017800	3.818000	-11.521000	22.618871	0.000938	20.801460
245.064962	-2.997300	3.818200	-11.443000	22.625253	0.000937	20.786516
246.067480	-3.000800	3.817200	-11.454000	22.619148	0.000940	20.783246
247.067194	-3.004500	3.817400	-11.468000	22.612479	0.000941	20.811654
248.067364	-3.002700	3.817500	-11.461000	22.627309	0.000940	20.793791
249.069372	-2.996600	3.816700	-11.437000	22.635700	0.000940	20.787022
250.069750	-2.978000	3.818500	-11.370000	22.660822	0.000942	20.803650
251.067657	-2.980700	3.818200	-11.380000	22.636753	0.000941	20.789973
252.068872	-2.985800	3.817400	-11.396000	22.643241	0.000942	20.798369
253.070700	-3.019500	3.817200	-11.524000	22.646824	0.000942	20.796268
254.071518	-3.008000	3.816100	-11.477000	22.646709	0.000943	20.781928
255.073141	-2.979300	3.817500	-11.371000	22.643869	0.000942	20.792834
256.070174	-2.996800	3.816100	-11.436000	22.656903	0.000943	20.778862
257.073958	-2.994000	3.815900	-11.424000	22.675895	0.000946	20.777971
258.069070	-2.995300	3.815900	-11.428000	22.681641	0.000946	20.799374
259.071816	-3.003100	3.814800	-11.456000	22.699865	0.000947	20.781118
260.074449	-3.003700	3.814600	-11.457000	22.705929	0.000946	20.776286
261.071958	-2.995500	3.814000	-11.424000	22.695466	0.000946	20.781453
262.073412	-2.992100	3.814700	-11.412000	22.700175	0.000948	20.768626
263.074265	-2.997200	3.814200	-11.431000	22.715127	0.000947	20.785499
264.073636	-2.998800	3.814300	-11.437000	22.720537	0.000947	20.786652
265.075078	-3.001700	3.813800	-11.448000	22.729384	0.000949	20.778918
266.085550	-2.967400	3.815300	-11.320000	22.744164	0.000948	20.776179
267.074651	-3.007200	3.813300	-11.466000	22.746726	0.000947	20.781591
268.074542	-2.987300	3.813300	-11.390000	22.763097	0.000949	20.783291
269.075992	-2.996700	3.813100	-11.426000	22.757295	0.000949	20.788384
270.075953	-2.989600	3.813900	-11.401000	22.752667	0.000950	20.777585
271.079386	-2.994100	3.813000	-11.416000	22.760118	0.000950	20.781255
272.074949	-2.989700	3.812000	-11.395000	22.779574	0.000952	20.781779
