LabVIEW Measurement	
Writer_Version	2
Reader_Version	2
Separator	Tab
Decimal_Separator	.
Multi_Headings	No
X_Columns	One
Time_Pref	Absolute
Operator	admin
Description	Clolumns are: time, Current, Voltage, Power, Battery Temp, and Chamber Temp
Date	2024/08/16
Time	13:06:06.104549407958984375
***End_of_Header***	
	
Channels	6						
Samples	1	1	1	1	1	1	
Date	2024/09/03	2024/09/03	2024/09/03	2024/09/03	2024/09/03	2024/09/03	
Time	10:16:48.1885957717895507812	10:16:48.1939501762390136719	10:16:48.1998577117919921875	10:16:48.1707177162170410156	10:16:48.1707177162170410156	10:16:48.1707177162170410156	
X_Dimension	Time	Time	Time	Time	Time	Time	
X0	0.0000000000000000E+0	0.0000000000000000E+0	0.0000000000000000E+0	0.0000000000000000E+0	0.0000000000000000E+0	0.0000000000000000E+0	
Delta_X	1.000000	1.000000	1.000000	1.000000	1.000000	1.000000	
***End_of_Header***							
X_Value	Untitled	Untitled 1	Untitled 2	Untitled 3	Untitled 4	Untitled 5	Comment
0.000000	0.004683	4.101600	0.019223	21.034032	0.000940	20.921201
1.000281	-2.983300	3.933900	-11.734000	21.059633	0.000938	20.897972
1.999729	-2.995600	3.927300	-11.764000	21.056713	0.000937	20.922076
3.003378	-2.982800	3.922100	-11.698000	21.046708	0.000938	20.914440
4.001132	-3.014500	3.917200	-11.807000	21.064647	0.000936	20.930959
5.001559	-2.980100	3.914800	-11.665000	21.087650	0.000936	20.899443
6.003253	-2.985200	3.912400	-11.679000	21.074301	0.000936	20.925917
7.001581	-3.016700	3.908500	-11.790000	21.086974	0.000935	20.936221
8.000887	-2.991900	3.907500	-11.690000	21.067890	0.000933	20.923772
9.002612	-3.008200	3.905200	-11.746000	21.086125	0.000932	20.927313
10.002019	-2.987900	3.904800	-11.666000	21.095806	0.000933	20.920876
11.000688	-3.006300	3.902000	-11.730000	21.101493	0.000933	20.932253
12.000863	-2.987900	3.901100	-11.655000	21.093983	0.000932	20.935172
13.001634	-3.007200	3.898300	-11.720000	21.098250	0.000932	20.932327
14.002183	-2.993900	3.898700	-11.672000	21.087345	0.000930	20.943704
15.004057	-3.009300	3.896000	-11.723000	21.083028	0.000929	20.932274
16.001827	-3.006700	3.895100	-11.711000	21.089739	0.000929	20.929504
17.004680	-3.011900	3.894300	-11.728000	21.115734	0.000929	20.919946
18.005702	-2.985800	3.894000	-11.626000	21.119901	0.000929	20.926958
19.003684	-3.007300	3.891700	-11.703000	21.128758	0.000927	20.934869
20.001453	-3.018800	3.891400	-11.746000	21.110345	0.000928	20.929253
21.005777	-2.997500	3.891500	-11.663000	21.127310	0.000926	20.928205
22.004622	-2.989000	3.889600	-11.626000	21.146642	0.000927	20.933317
23.002664	-3.032500	3.888200	-11.790000	21.158416	0.000926	20.924233
24.005778	-3.014100	3.886900	-11.714000	21.131847	0.000925	20.940802
25.002480	-2.992700	3.887100	-11.631000	21.157317	0.000923	20.927401
26.003548	-3.008200	3.886800	-11.692000	21.155768	0.000923	20.967098
27.005704	-3.015200	3.885600	-11.715000	21.148683	0.000923	20.934410
28.003174	-3.003800	3.885900	-11.671000	21.126054	0.000922	20.923156
29.004038	-3.028200	3.883900	-11.760000	21.187026	0.000923	20.929618
30.007629	-3.000300	3.882000	-11.645000	21.179914	0.000920	20.918712
31.004959	-3.008600	3.883400	-11.682000	21.163323	0.000921	20.939097
32.005071	-3.019400	3.882400	-11.722000	21.205008	0.000923	20.920107
33.007599	-2.996400	3.882400	-11.631000	21.192335	0.000919	20.925920
34.006031	-2.996800	3.881300	-11.631000	21.201713	0.000921	20.926768
35.005864	-3.014300	3.882000	-11.701000	21.171701	0.000920	20.915238
36.007483	-3.010100	3.881000	-11.681000	21.207700	0.000920	20.929437
37.006812	-3.003400	3.880900	-11.655000	21.193278	0.000917	20.940139
38.006247	-3.007200	3.878200	-11.662000	21.214082	0.000918	20.924917
39.007447	-2.997300	3.879200	-11.626000	21.220894	0.000917	20.928411
40.007398	-2.989900	3.880100	-11.599000	21.221216	0.000919	20.938689
41.009163	-3.006000	3.878300	-11.657000	21.218920	0.000917	20.913636
42.006454	-3.003800	3.877400	-11.646000	21.245461	0.000917	20.902730
43.008198	-3.005000	3.876300	-11.648000	21.249302	0.000916	20.930751
44.009202	-2.999600	3.876700	-11.628000	21.235605	0.000917	20.923213
45.009436	-2.995100	3.877600	-11.613000	21.250896	0.000916	20.920019
46.006886	-2.996900	3.876300	-11.616000	21.256034	0.000918	20.915676
47.008874	-2.997100	3.876600	-11.618000	21.276038	0.000917	20.937109
48.007762	-2.995100	3.874400	-11.602000	21.257677	0.000918	20.927750
49.012412	-2.998700	3.875100	-11.618000	21.280027	0.000917	20.924980
50.007751	-3.014600	3.874200	-11.677000	21.285264	0.000916	20.916469
51.008543	-3.019600	3.872400	-11.690000	21.265109	0.000916	20.916695
52.011147	-2.984700	3.875400	-11.566000	21.299530	0.000916	20.906086
53.010811	-3.012100	3.874400	-11.668000	21.290324	0.000915	20.931961
54.009223	-2.993300	3.874700	-11.598000	21.305017	0.000916	20.902093
55.011635	-3.009900	3.871600	-11.652000	21.311825	0.000914	20.913644
56.010639	-2.987000	3.872700	-11.567000	21.301696	0.000913	20.929114
57.010470	-2.985700	3.871800	-11.558000	21.327238	0.000916	20.924322
58.014795	-2.986600	3.871900	-11.563000	21.342727	0.000913	20.905681
59.013956	-2.984100	3.870300	-11.548000	21.351581	0.000915	20.918331
60.012898	-2.985000	3.871200	-11.555000	21.354173	0.000915	20.911442
61.019228	-3.003400	3.869200	-11.620000	21.346937	0.000912	20.912263
62.011817	-2.990700	3.871100	-11.576000	21.363225	0.000914	20.912912
63.013440	-2.998900	3.869400	-11.603000	21.370209	0.000913	20.908520
64.014339	-3.020400	3.867800	-11.680000	21.377791	0.000914	20.912786
65.015185	-2.989300	3.869400	-11.566000	21.381231	0.000912	20.916702
66.011611	-2.995500	3.870300	-11.592000	21.384073	0.000912	20.911959
67.016033	-3.001600	3.866600	-11.605000	21.391979	0.000914	20.916076
68.013432	-2.995100	3.868600	-11.586000	21.380329	0.000914	20.927652
69.013220	-2.980100	3.870000	-11.531000	21.389932	0.000913	20.883210
70.016972	-3.003100	3.868400	-11.616000	21.415945	0.000914	20.901175
71.013521	-3.006400	3.866200	-11.622000	21.412377	0.000915	20.910880
72.012778	-2.999800	3.866700	-11.598000	21.415618	0.000912	20.933561
73.018060	-3.002200	3.865600	-11.603000	21.434448	0.000911	20.899774
74.015132	-2.992200	3.867300	-11.571000	21.434772	0.000915	20.928544
75.018267	-3.008700	3.866900	-11.633000	21.441279	0.000914	20.893807
76.018904	-3.007000	3.866300	-11.625000	21.457143	0.000916	20.915841
77.019937	-3.022500	3.864800	-11.680000	21.458662	0.000913	20.920680
78.015967	-2.999600	3.865500	-11.594000	21.460058	0.000912	20.921128
79.019904	-3.015600	3.864600	-11.653000	21.469360	0.000911	20.894403
80.017478	-2.980300	3.865000	-11.517000	21.470956	0.000913	20.904533
81.018705	-2.969300	3.865600	-11.476000	21.465840	0.000914	20.892303
82.022684	-3.000400	3.863300	-11.590000	21.460428	0.000912	20.904431
83.018017	-2.970000	3.865100	-11.478000	21.480330	0.000912	20.928135
84.019145	-3.013200	3.863100	-11.638000	21.480005	0.000914	20.896519
85.025508	-2.994700	3.863400	-11.569000	21.480727	0.000912	20.914783
86.020430	-3.003000	3.864000	-11.603000	21.481948	0.000912	20.894196
87.019270	-2.984800	3.863300	-11.530000	21.512050	0.000913	20.905823
88.023183	-2.995000	3.863300	-11.569000	21.506164	0.000913	20.892348
89.020571	-3.015700	3.861800	-11.643000	21.517535	0.000912	20.903725
90.021029	-2.984600	3.864100	-11.531000	21.517910	0.000914	20.900781
91.023897	-3.012300	3.863000	-11.635000	21.527261	0.000914	20.915353
92.021582	-3.018500	3.862200	-11.655000	21.560729	0.000914	20.897161
93.022180	-2.991700	3.862000	-11.554000	21.544743	0.000914	20.917198
94.025941	-2.991600	3.862100	-11.553000	21.551599	0.000916	20.904146
95.022992	-2.995900	3.860700	-11.565000	21.550178	0.000914	20.903672
96.022075	-3.015900	3.859800	-11.640000	21.580701	0.000914	20.904818
97.029936	-3.017500	3.861700	-11.652000	21.589130	0.000914	20.882909
98.024724	-3.023800	3.860200	-11.671000	21.589852	0.000916	20.907811
99.024521	-2.992800	3.860200	-11.550000	21.572842	0.000914	20.914497
100.026783	-3.031600	3.859600	-11.699000	21.610649	0.000916	20.883106
101.025910	-3.000600	3.860100	-11.582000	21.601022	0.000915	20.904290
102.028884	-3.014800	3.860100	-11.636000	21.607979	0.000913	20.886124
103.030157	-3.012300	3.858600	-11.622000	21.611368	0.000913	20.881929
104.026705	-2.996400	3.859600	-11.564000	21.635307	0.000914	20.885496
105.028759	-2.979800	3.859800	-11.500000	21.639646	0.000914	20.899320
106.027265	-3.020600	3.858600	-11.654000	21.645007	0.000914	20.900418
107.026690	-2.994100	3.858900	-11.553000	21.644183	0.000913	20.894378
108.029182	-3.022400	3.857800	-11.659000	21.618846	0.000916	20.901264
109.032588	-2.980700	3.859200	-11.502000	21.652634	0.000915	20.893827
110.028246	-3.010100	3.858100	-11.612000	21.649866	0.000917	20.884893
111.027578	-2.975700	3.859800	-11.485000	21.656798	0.000916	20.896571
112.032218	-2.999200	3.857900	-11.569000	21.701882	0.000917	20.896644
113.028930	-2.988300	3.857000	-11.524000	21.698713	0.000917	20.877828
114.029326	-2.977100	3.858700	-11.486000	21.713700	0.000915	20.886662
115.029209	-3.005000	3.857700	-11.591000	21.713974	0.000916	20.917278
116.028275	-3.012300	3.856300	-11.614000	21.722350	0.000916	20.896266
117.028229	-2.990100	3.857400	-11.532000	21.725915	0.000917	20.872809
118.033076	-3.001700	3.856600	-11.576000	21.732573	0.000915	20.914082
119.029483	-2.997200	3.855800	-11.555000	21.703696	0.000915	20.916002
120.029875	-3.000500	3.856400	-11.570000	21.719205	0.000914	20.896438
121.031808	-2.973700	3.856600	-11.467000	21.722896	0.000915	20.884960
122.031148	-2.988000	3.854900	-11.517000	21.743441	0.000917	20.864746
123.032792	-2.987100	3.854600	-11.513000	21.732269	0.000917	20.906666
124.033932	-2.989600	3.855800	-11.524000	21.758225	0.000916	20.913677
125.030955	-2.988300	3.854800	-11.518000	21.738577	0.000917	20.908712
126.037306	-2.999300	3.853900	-11.558000	21.754982	0.000916	20.892415
127.041670	-2.991800	3.854400	-11.531000	21.738899	0.000917	20.902871
128.031838	-2.999100	3.854500	-11.558000	21.785826	0.000916	20.889146
129.036706	-2.992100	3.854300	-11.531000	21.771862	0.000917	20.885602
130.035016	-3.014300	3.852700	-11.612000	21.754930	0.000918	20.896630
131.035151	-2.994600	3.854500	-11.542000	21.760315	0.000918	20.882106
132.032328	-3.008700	3.854300	-11.595000	21.753831	0.000917	20.889367
133.036116	-2.997600	3.854300	-11.552000	21.778990	0.000920	20.881831
134.035809	-2.991300	3.853800	-11.526000	21.785348	0.000918	20.887245
135.033258	-3.001100	3.852700	-11.561000	21.791531	0.000919	20.900071
136.044569	-2.985700	3.853600	-11.504000	21.794000	0.000918	20.894956
137.036368	-3.017300	3.853000	-11.623000	21.839078	0.000918	20.897874
138.034888	-3.011100	3.853200	-11.601000	21.832520	0.000920	20.898423
139.035936	-3.010500	3.852500	-11.597000	21.839053	0.000919	20.893582
140.033614	-3.005100	3.851400	-11.573000	21.817934	0.000919	20.889514
141.034322	-2.995100	3.851900	-11.536000	21.841197	0.000919	20.887667
142.036391	-3.018700	3.851600	-11.626000	21.852690	0.000919	20.893007
143.036542	-2.975500	3.852300	-11.461000	21.856530	0.000922	20.887842
144.035909	-3.006500	3.850800	-11.577000	21.879567	0.000921	20.900467
145.042243	-2.994700	3.851400	-11.533000	21.885451	0.000923	20.882651
146.034918	-2.995600	3.850300	-11.533000	21.887570	0.000922	20.887142
147.037021	-3.012900	3.850200	-11.599000	21.896395	0.000923	20.892182
148.037467	-2.988200	3.851300	-11.507000	21.887617	0.000922	20.875811
149.036363	-2.998900	3.849900	-11.545000	21.908535	0.000924	20.884894
150.037055	-3.001700	3.849800	-11.555000	21.930898	0.000923	20.893528
151.037150	-3.024600	3.847300	-11.635000	21.928804	0.000924	20.875786
152.038207	-3.007500	3.850200	-11.577000	21.923268	0.000924	20.880202
153.036718	-2.999900	3.849400	-11.546000	21.939224	0.000924	20.892854
154.040534	-2.981300	3.849100	-11.472000	21.951938	0.000925	20.888985
155.037422	-3.004600	3.849500	-11.564000	21.957422	0.000927	20.862234
156.036719	-3.036900	3.846900	-11.682000	21.952959	0.000926	20.860611
157.038152	-2.996100	3.849600	-11.534000	21.957471	0.000926	20.884566
158.036075	-2.977100	3.848300	-11.455000	21.975220	0.000927	20.879101
159.038846	-3.025600	3.847500	-11.639000	22.000698	0.000927	20.890853
160.039945	-2.987400	3.847900	-11.494000	21.994515	0.000926	20.889406
161.037575	-2.999100	3.846100	-11.533000	21.975318	0.000926	20.883465
162.037933	-3.002800	3.846900	-11.550000	22.004859	0.000927	20.879847
163.039169	-3.008600	3.847300	-11.573000	22.000346	0.000928	20.877700
164.038786	-2.986400	3.846900	-11.486000	21.998077	0.000927	20.857887
165.039874	-2.983200	3.846700	-11.474000	22.000246	0.000926	20.861479
166.043354	-2.996200	3.846300	-11.524000	22.006703	0.000928	20.876951
167.038728	-3.006500	3.846200	-11.563000	22.041502	0.000929	20.879071
168.039233	-3.005500	3.844400	-11.553000	22.050377	0.000930	20.887954
169.045576	-2.998900	3.845200	-11.530000	22.066954	0.000926	20.865197
170.045329	-2.987900	3.846600	-11.492000	22.049229	0.000927	20.882065
171.042940	-2.996400	3.845500	-11.520000	22.029162	0.000931	20.874779
172.045641	-2.977900	3.844800	-11.448000	22.076351	0.000930	20.864173
173.047395	-2.977200	3.846000	-11.450000	22.061493	0.000931	20.859256
174.042803	-2.993000	3.843800	-11.502000	22.072960	0.000931	20.854614
175.046970	-3.000200	3.845000	-11.535000	22.070418	0.000931	20.841165
176.048692	-3.010800	3.842000	-11.566000	22.081585	0.000929	20.860405
177.045817	-3.018800	3.845000	-11.606000	22.076400	0.000932	20.863274
178.050086	-2.998600	3.842700	-11.521000	22.103945	0.000932	20.863349
179.050222	-3.008700	3.844500	-11.566000	22.110825	0.000931	20.861228
180.047586	-2.979200	3.843100	-11.448000	22.104644	0.000931	20.855040
181.051532	-2.991500	3.843500	-11.496000	22.123490	0.000930	20.848778
182.050510	-2.994800	3.844000	-11.512000	22.118678	0.000932	20.857710
183.048539	-2.983000	3.843100	-11.463000	22.110204	0.000930	20.875778
184.053729	-2.997500	3.842200	-11.515000	22.120972	0.000930	20.875653
185.051183	-3.021900	3.841700	-11.608000	22.118978	0.000933	20.886458
186.049065	-3.023400	3.842800	-11.617000	22.129673	0.000933	20.858761
187.051399	-2.996200	3.843200	-11.515000	22.119403	0.000934	20.863178
188.051876	-2.998800	3.841600	-11.519000	22.148568	0.000932	20.849703
189.049375	-2.986200	3.842300	-11.471000	22.167536	0.000932	20.858736
190.052011	-2.990300	3.841100	-11.485000	22.137850	0.000935	20.849404
191.052011	-2.987100	3.841200	-11.473000	22.154727	0.000935	20.850179
192.049706	-2.988600	3.841000	-11.478000	22.147424	0.000933	20.839075
193.051936	-2.982600	3.841600	-11.457000	22.124841	0.000936	20.862458
194.054102	-2.980500	3.839900	-11.443000	22.150143	0.000935	20.853651
195.048826	-2.981500	3.841100	-11.452000	22.149595	0.000934	20.854050
196.057627	-3.016400	3.839100	-11.579000	22.165621	0.000935	20.847811
197.050832	-3.002600	3.839700	-11.528000	22.171058	0.000935	20.855624
198.049841	-2.981900	3.840800	-11.452000	22.176541	0.000936	20.846415
199.053393	-2.992600	3.840400	-11.492000	22.172304	0.000937	20.831269
200.056532	-2.997500	3.839200	-11.506000	22.169539	0.000936	20.857422
201.049308	-3.010200	3.838400	-11.553000	22.188135	0.000938	20.831471
202.053460	-3.008500	3.838800	-11.548000	22.186242	0.000937	20.834317
203.052517	-3.021500	3.838000	-11.595000	22.213634	0.000938	20.832346
204.049923	-2.981800	3.839300	-11.447000	22.235494	0.000942	20.866559
205.052081	-3.001600	3.837900	-11.519000	22.242973	0.000940	20.834220
206.055004	-3.014900	3.836200	-11.564000	22.246736	0.000942	20.831350
207.052666	-2.993900	3.837700	-11.489000	22.276945	0.000940	20.848321
208.057261	-3.012500	3.837000	-11.558000	22.266653	0.000943	20.826162
209.055531	-2.991100	3.836800	-11.475000	22.274529	0.000943	20.833574
210.052695	-2.997200	3.836000	-11.496000	22.276174	0.000942	20.830954
211.056000	-3.008300	3.835300	-11.536000	22.291652	0.000942	20.829382
212.054662	-2.995700	3.836400	-11.491000	22.319416	0.000943	20.837743
213.051940	-3.001400	3.835400	-11.511000	22.300900	0.000946	20.830582
214.058144	-3.043000	3.833800	-11.665000	22.309673	0.000946	20.829884
215.055155	-3.017600	3.835600	-11.574000	22.335194	0.000945	20.821774
216.053884	-2.987200	3.837300	-11.462000	22.344939	0.000946	20.820152
217.056334	-3.017000	3.835800	-11.572000	22.341026	0.000948	20.806277
218.058096	-3.028600	3.834900	-11.614000	22.344690	0.000948	20.828438
219.054520	-2.998900	3.835200	-11.501000	22.358995	0.000947	20.808149
220.058494	-3.014400	3.834000	-11.554000	22.358223	0.000950	20.813540
221.056634	-3.005300	3.834700	-11.524000	22.350946	0.000949	20.834702
222.053524	-2.996000	3.834400	-11.486000	22.349752	0.000950	20.809799
223.059740	-3.002100	3.835000	-11.513000	22.346037	0.000951	20.833105
224.058793	-2.988100	3.833700	-11.455000	22.329689	0.000949	20.806779
225.056127	-3.019100	3.833100	-11.572000	22.323533	0.000951	20.811046
226.059873	-2.997200	3.833300	-11.489000	22.310500	0.000950	20.807478
227.060198	-2.994200	3.833000	-11.476000	22.334398	0.000952	20.811020
228.059041	-2.972300	3.835300	-11.398000	22.320569	0.000949	20.795750
229.060575	-2.981800	3.832800	-11.428000	22.343447	0.000949	20.827193
230.060918	-3.004100	3.834400	-11.517000	22.355286	0.000950	20.797797
231.058208	-2.981600	3.834000	-11.431000	22.363061	0.000952	20.805108
232.060848	-2.996500	3.831500	-11.480000	22.363086	0.000952	20.798969
233.061329	-3.001100	3.831700	-11.498000	22.369691	0.000952	20.825024
234.060186	-2.987600	3.832700	-11.450000	22.365180	0.000952	20.788738
235.063467	-2.985900	3.832100	-11.440000	22.373330	0.000953	20.803538
236.059725	-2.998600	3.832400	-11.490000	22.384272	0.000954	20.814020
237.058701	-2.985100	3.831700	-11.437000	22.401393	0.000954	20.802716
238.063420	-2.963500	3.832100	-11.355000	22.417442	0.000955	20.813572
239.061175	-2.969800	3.832100	-11.379000	22.397184	0.000954	20.809881
240.059966	-2.994200	3.831400	-11.470000	22.393196	0.000956	20.785024
241.062561	-3.006200	3.830600	-11.514000	22.399403	0.000955	20.782231
242.060747	-3.001400	3.829900	-11.493000	22.422131	0.000958	20.790766
243.060449	-3.014700	3.829900	-11.545000	22.396812	0.000957	20.785327
244.062994	-3.021100	3.829900	-11.569000	22.421410	0.000957	20.788148
245.061415	-2.983100	3.829500	-11.422000	22.424302	0.000956	20.786302
246.059621	-2.978500	3.829600	-11.406000	22.427567	0.000958	20.798582
247.061198	-3.004700	3.829800	-11.507000	22.452587	0.000959	20.771006
248.061086	-2.993500	3.829100	-11.461000	22.478454	0.000958	20.783634
249.060635	-2.992100	3.830600	-11.460000	22.467964	0.000958	20.799682
250.061834	-3.014300	3.828000	-11.537000	22.449550	0.000958	20.801629
251.061684	-3.008400	3.827900	-11.515000	22.433178	0.000959	20.794717
252.060396	-3.004500	3.830100	-11.507000	22.443720	0.000959	20.764023
253.062315	-3.027600	3.826600	-11.585000	22.462835	0.000960	20.780321
254.063564	-3.015000	3.826300	-11.536000	22.469315	0.000961	20.783965
255.063352	-2.982100	3.828500	-11.416000	22.459248	0.000961	20.790479
256.064820	-2.991000	3.828900	-11.451000	22.473554	0.000961	20.785839
257.065035	-2.997100	3.827700	-11.471000	22.492840	0.000963	20.771014
258.066206	-2.981500	3.826900	-11.409000	22.517584	0.000962	20.763079
259.067626	-2.999100	3.826100	-11.474000	22.500318	0.000963	20.764279
260.067226	-3.014300	3.827100	-11.535000	22.497404	0.000964	20.772741
261.066423	-2.999800	3.825300	-11.474000	22.510862	0.000965	20.753975
262.067579	-3.002900	3.826500	-11.489000	22.540963	0.000965	20.774640
263.067410	-3.020900	3.824400	-11.552000	22.535333	0.000965	20.763311
264.066086	-2.993800	3.825800	-11.453000	22.540716	0.000964	20.763486
265.070494	-2.990800	3.826300	-11.443000	22.529503	0.000966	20.758420
266.066964	-2.993500	3.826500	-11.454000	22.533965	0.000966	20.781856
267.066944	-2.999000	3.825400	-11.471000	22.529406	0.000966	20.766384
268.067583	-2.994600	3.825100	-11.454000	22.524648	0.000967	20.767783
269.068880	-3.018000	3.823800	-11.538000	22.537930	0.000967	20.752161
270.067307	-3.010200	3.824200	-11.509000	22.540947	0.000968	20.765141
271.070854	-2.997600	3.824800	-11.464000	22.507035	0.000969	20.758204
272.068599	-3.001200	3.824800	-11.477000	22.536613	0.000968	20.747523
