LabVIEW Measurement	
Writer_Version	2
Reader_Version	2
Separator	Tab
Decimal_Separator	.
Multi_Headings	No
X_Columns	One
Time_Pref	Absolute
Operator	admin
Description	Clolumns are: time, Current, Voltage, Power, Battery Temp, and Chamber Temp
Date	2024/08/16
Time	13:06:06.104549407958984375
***End_of_Header***	
	
Channels	6						
Samples	1	1	1	1	1	1	
Date	2024/09/15	2024/09/15	2024/09/15	2024/09/15	2024/09/15	2024/09/15	
Time	22:25:54.8309345245361328125	22:25:54.8377518653869628906	22:25:54.8437399864196777344	22:25:54.8125400543212890625	22:25:54.8125400543212890625	22:25:54.8125400543212890625	
X_Dimension	Time	Time	Time	Time	Time	Time	
X0	0.0000000000000000E+0	0.0000000000000000E+0	0.0000000000000000E+0	0.0000000000000000E+0	0.0000000000000000E+0	0.0000000000000000E+0	
Delta_X	1.000000	1.000000	1.000000	1.000000	1.000000	1.000000	
***End_of_Header***							
X_Value	Untitled	Untitled 1	Untitled 2	Untitled 3	Untitled 4	Untitled 5	Comment
0.000000	0.027881	4.093200	0.114170	21.026178	0.000945	20.801926
0.999005	-3.025600	3.911000	-11.831000	21.030143	0.000944	20.795461
1.998826	-3.000000	3.904300	-11.712000	21.024628	0.000942	20.809385
3.001050	-2.998900	3.898700	-11.690000	21.040672	0.000941	20.814526
4.001761	-3.015600	3.894400	-11.743000	21.023404	0.000941	20.818592
5.000998	-3.005000	3.891000	-11.691000	21.062202	0.000940	20.812353
6.002352	-3.009700	3.889200	-11.705000	21.024331	0.000937	20.818570
6.999389	-3.017700	3.887500	-11.730000	21.032910	0.000939	20.815772
8.001446	-2.994600	3.884400	-11.630000	21.032839	0.000938	20.810959
9.008465	-3.012000	3.881500	-11.690000	21.030593	0.000936	20.801600
10.001448	-2.998300	3.879600	-11.630000	21.049456	0.000936	20.796285
11.001623	-3.002900	3.878100	-11.644000	21.061955	0.000935	20.830597
12.004335	-2.995700	3.877500	-11.614000	21.047262	0.000932	20.827756
13.003982	-3.015500	3.874100	-11.679000	21.069341	0.000934	20.813330
14.003315	-2.991400	3.875800	-11.593000	21.058735	0.000932	20.822162
15.004073	-2.999500	3.873700	-11.618000	21.069642	0.000931	20.808415
16.004076	-3.000400	3.870600	-11.612000	21.087404	0.000931	20.819069
17.005808	-3.002100	3.870100	-11.618000	21.075557	0.000931	20.822392
18.006155	-3.000100	3.869200	-11.607000	21.081694	0.000930	20.818574
19.016577	-3.004500	3.869000	-11.623000	21.080446	0.000929	20.821118
20.004624	-2.998900	3.867300	-11.597000	21.098660	0.000929	20.838863
21.006000	-3.011300	3.865300	-11.639000	21.115902	0.000928	20.820548
22.008524	-3.012400	3.866700	-11.647000	21.119691	0.000929	20.817700
23.010114	-3.005900	3.863600	-11.612000	21.125057	0.000929	20.817852
24.008202	-2.989600	3.864200	-11.551000	21.111735	0.000928	20.832027
25.007626	-2.992400	3.862400	-11.556000	21.115127	0.000927	20.813135
26.006705	-2.990200	3.862900	-11.549000	21.151453	0.000927	20.817229
27.008678	-3.006400	3.862100	-11.610000	21.143696	0.000926	20.832702
28.007901	-2.997800	3.860300	-11.571000	21.154202	0.000927	20.836099
29.008258	-3.003000	3.859600	-11.589000	21.151234	0.000926	20.852570
30.008090	-3.000500	3.860100	-11.581000	21.157123	0.000925	20.817685
31.007821	-2.974100	3.860700	-11.481000	21.162012	0.000925	20.814041
32.006880	-2.981000	3.860300	-11.507000	21.158744	0.000925	20.828315
33.007824	-2.990800	3.858800	-11.540000	21.181796	0.000925	20.829564
34.008421	-3.005800	3.857400	-11.593000	21.179355	0.000925	20.829018
35.012830	-3.002200	3.858200	-11.580000	21.217423	0.000924	20.824426
36.007390	-2.992600	3.857100	-11.542000	21.185818	0.000924	20.835483
37.008415	-3.022900	3.854100	-11.649000	21.203405	0.000927	20.831739
38.009192	-2.995700	3.854600	-11.546000	21.233942	0.000926	20.836208
39.009265	-3.004600	3.853200	-11.575000	21.230426	0.000926	20.835536
40.009802	-3.014500	3.854000	-11.617000	21.231129	0.000923	20.841930
41.010978	-3.002700	3.852400	-11.566000	21.244998	0.000925	20.829252
42.012012	-3.007100	3.852700	-11.585000	21.257873	0.000924	20.818424
43.010972	-3.010200	3.852500	-11.596000	21.277263	0.000924	20.848252
44.012208	-2.979000	3.853300	-11.477000	21.261520	0.000922	20.818279
45.013424	-3.023800	3.851800	-11.646000	21.271628	0.000922	20.838348
46.015069	-3.002700	3.849700	-11.559000	21.282377	0.000925	20.825395
47.015401	-2.997700	3.851100	-11.543000	21.289465	0.000924	20.832485
48.016505	-2.991300	3.850700	-11.518000	21.310390	0.000925	20.815961
49.018091	-2.990100	3.852400	-11.517000	21.319900	0.000923	20.842545
50.020235	-2.993100	3.851100	-11.524000	21.326585	0.000925	20.843068
51.017524	-2.989900	3.850100	-11.510000	21.331699	0.000924	20.850081
52.019946	-2.986400	3.849500	-11.495000	21.340577	0.000924	20.831463
53.021995	-3.005400	3.848400	-11.564000	21.348015	0.000923	20.843645
54.015979	-2.999100	3.849300	-11.542000	21.367445	0.000924	20.850283
55.021621	-3.003100	3.847900	-11.554000	21.345450	0.000924	20.836812
56.018744	-3.022700	3.847100	-11.627000	21.385306	0.000922	20.840178
57.018059	-2.996600	3.847400	-11.528000	21.369847	0.000924	20.843677
58.018369	-3.011600	3.847000	-11.585000	21.378024	0.000925	20.832892
59.018403	-3.008400	3.846500	-11.571000	21.366353	0.000925	20.838284
60.018718	-3.017700	3.845300	-11.603000	21.393790	0.000923	20.839183
61.020715	-3.008500	3.845700	-11.568000	21.378650	0.000922	20.861966
62.023644	-3.003600	3.845400	-11.548000	21.406787	0.000923	20.861669
63.019072	-2.987100	3.847100	-11.490000	21.411077	0.000924	20.867383
64.021286	-2.986600	3.845800	-11.484000	21.439461	0.000923	20.860222
65.022554	-3.004300	3.843700	-11.546000	21.440582	0.000923	20.851861
66.017221	-2.989900	3.844500	-11.493000	21.448865	0.000924	20.871527
67.025402	-3.002800	3.844400	-11.543000	21.464729	0.000922	20.843779
68.021835	-3.012500	3.844600	-11.581000	21.462360	0.000923	20.831926
69.019486	-2.995500	3.843000	-11.510000	21.472113	0.000921	20.866339
70.022694	-3.010700	3.842800	-11.567000	21.485459	0.000924	20.851719
71.022954	-3.012200	3.842400	-11.573000	21.499601	0.000924	20.855438
72.020023	-3.016600	3.841900	-11.589000	21.498699	0.000923	20.841260
73.021773	-3.011600	3.841200	-11.567000	21.495630	0.000922	20.844827
74.021182	-3.020400	3.842600	-11.605000	21.527205	0.000924	20.869782
75.019437	-3.024600	3.840700	-11.616000	21.514786	0.000922	20.865890
76.021386	-2.986000	3.841600	-11.470000	21.541400	0.000925	20.842261
77.019565	-2.984500	3.840600	-11.460000	21.535289	0.000923	20.853216
78.020061	-2.983800	3.841200	-11.460000	21.536537	0.000925	20.869637
79.022177	-2.985500	3.840600	-11.466000	21.531028	0.000925	20.871236
80.020084	-2.976500	3.840100	-11.429000	21.561577	0.000924	20.861977
81.021437	-2.998100	3.839800	-11.510000	21.557288	0.000926	20.870012
82.024867	-2.999500	3.840400	-11.518000	21.559328	0.000923	20.861149
83.026516	-3.019300	3.839800	-11.593000	21.572924	0.000925	20.865745
84.021597	-3.019800	3.838700	-11.591000	21.583525	0.000924	20.882516
85.022178	-2.998700	3.839500	-11.513000	21.604395	0.000924	20.858831
86.023713	-3.002400	3.839400	-11.526000	21.604869	0.000924	20.888227
87.022820	-2.999600	3.839500	-11.516000	21.603751	0.000926	20.876204
88.023704	-2.968000	3.838600	-11.392000	21.619660	0.000928	20.884062
89.022865	-2.981000	3.838000	-11.440000	21.613001	0.000925	20.872184
90.023715	-2.967000	3.839100	-11.389000	21.635048	0.000924	20.880022
91.026098	-3.009600	3.835600	-11.542000	21.614822	0.000926	20.862154
92.023542	-3.013200	3.836300	-11.559000	21.663550	0.000924	20.862079
93.024948	-3.000200	3.837900	-11.513000	21.639387	0.000926	20.881992
94.031918	-3.005600	3.836800	-11.531000	21.669561	0.000924	20.888481
95.024041	-2.989100	3.835500	-11.463000	21.661581	0.000925	20.881918
96.023900	-2.991000	3.836900	-11.475000	21.687742	0.000927	20.895296
97.027490	-3.007100	3.835100	-11.531000	21.695549	0.000924	20.886514
98.024963	-3.009300	3.835400	-11.539000	21.711184	0.000926	20.876558
99.024513	-3.002000	3.835000	-11.511000	21.725871	0.000927	20.884143
100.027400	-2.985800	3.835300	-11.451000	21.720034	0.000927	20.886362
101.023649	-3.023600	3.834200	-11.592000	21.716844	0.000928	20.897868
102.026197	-2.994200	3.834200	-11.479000	21.738585	0.000926	20.892126
103.030054	-3.002700	3.834400	-11.513000	21.728314	0.000927	20.888011
104.027701	-2.994800	3.834000	-11.480000	21.749114	0.000927	20.872793
105.026811	-2.996100	3.832800	-11.481000	21.745571	0.000926	20.901013
106.028841	-3.011700	3.834100	-11.545000	21.775870	0.000928	20.899096
107.027216	-3.007400	3.833200	-11.527000	21.759261	0.000928	20.893852
108.026861	-3.009000	3.833200	-11.533000	21.769609	0.000929	20.883821
109.029117	-3.017100	3.833100	-11.564000	21.782478	0.000929	20.895278
110.025161	-2.995200	3.831600	-11.475000	21.785448	0.000930	20.882604
111.026107	-3.006000	3.830300	-11.512000	21.828781	0.000930	20.906059
112.030121	-3.012500	3.831800	-11.542000	21.822495	0.000930	20.890760
113.028733	-3.013700	3.831700	-11.546000	21.827186	0.000930	20.892610
114.029192	-3.015800	3.829900	-11.550000	21.819186	0.000930	20.898353
115.029592	-2.982200	3.832000	-11.426000	21.811900	0.000933	20.873518
116.031187	-2.994600	3.831700	-11.473000	21.821180	0.000931	20.872849
117.028836	-3.004600	3.829800	-11.506000	21.862468	0.000932	20.876243
118.033808	-2.980000	3.830500	-11.412000	21.852046	0.000933	20.893785
119.028751	-2.980000	3.830200	-11.413000	21.854365	0.000935	20.854857
120.028664	-3.011600	3.828500	-11.529000	21.853895	0.000932	20.879515
121.031674	-2.994800	3.830600	-11.470000	21.876831	0.000933	20.867860
122.029426	-3.009300	3.828700	-11.521000	21.896925	0.000933	20.889868
123.029644	-3.004400	3.828500	-11.502000	21.893811	0.000934	20.875846
124.030172	-3.000800	3.829300	-11.488000	21.905953	0.000935	20.873302
125.029337	-3.000300	3.828900	-11.486000	21.921310	0.000935	20.878242
126.031529	-3.009400	3.829300	-11.524000	21.947186	0.000935	20.876168
127.032750	-2.996900	3.827400	-11.469000	21.943248	0.000935	20.868434
128.032928	-3.008800	3.827400	-11.514000	21.950855	0.000935	20.861350
129.032223	-3.003500	3.827100	-11.494000	21.930260	0.000935	20.885778
130.035404	-2.987400	3.828300	-11.435000	21.927616	0.000935	20.853262
131.035130	-3.009500	3.826900	-11.516000	21.937164	0.000937	20.881309
132.034305	-3.015400	3.826700	-11.538000	21.960300	0.000938	20.872227
133.035424	-3.008900	3.827700	-11.515000	21.946839	0.000937	20.871080
134.035130	-3.013000	3.827100	-11.530000	21.976928	0.000938	20.860423
135.034569	-2.989200	3.826200	-11.435000	21.956935	0.000938	20.858427
136.036401	-3.011600	3.825800	-11.520000	21.954443	0.000939	20.845028
137.035190	-2.982000	3.826200	-11.409000	21.965959	0.000939	20.852289
138.034880	-2.983400	3.826300	-11.414000	21.985380	0.000940	20.865090
139.036677	-2.983700	3.826800	-11.417000	21.979247	0.000939	20.872701
140.035637	-3.006700	3.824200	-11.498000	21.981743	0.000943	20.861449
141.036069	-2.980200	3.824800	-11.397000	21.987752	0.000939	20.868887
142.037488	-3.002700	3.824500	-11.482000	21.990643	0.000941	20.849023
143.041724	-2.999000	3.823500	-11.465000	22.015372	0.000939	20.857182
144.037233	-3.004400	3.823600	-11.485000	22.019465	0.000941	20.853693
145.039531	-3.001800	3.824700	-11.479000	22.028037	0.000942	20.861325
146.038499	-2.985700	3.823400	-11.414000	22.026842	0.000941	20.837845
147.040100	-2.990000	3.823100	-11.429000	22.040780	0.000942	20.846107
148.040306	-2.978600	3.824600	-11.390000	22.057233	0.000941	20.844561
149.039415	-2.994400	3.823700	-11.448000	22.044968	0.000943	20.826593
150.039891	-3.009200	3.821500	-11.499000	22.051405	0.000943	20.848683
151.041619	-3.003200	3.823300	-11.481000	22.081738	0.000944	20.848230
152.041329	-3.006600	3.820900	-11.487000	22.075959	0.000944	20.847186
153.040258	-3.015100	3.822000	-11.522000	22.087924	0.000945	20.838776
154.043650	-2.991700	3.822200	-11.432000	22.094081	0.000944	20.835931
155.041289	-2.978300	3.822800	-11.384000	22.114570	0.000944	20.851227
156.041062	-2.974200	3.823100	-11.368000	22.107490	0.000946	20.853148
157.043185	-3.012100	3.820700	-11.506000	22.089942	0.000945	20.846960
158.041689	-2.982700	3.821500	-11.398000	22.108038	0.000946	20.856067
159.041893	-2.994200	3.821100	-11.440000	22.120829	0.000947	20.857493
160.043376	-2.991100	3.820600	-11.426000	22.135790	0.000947	20.838807
161.046936	-2.989600	3.820200	-11.419000	22.144562	0.000948	20.845219
162.044186	-2.999800	3.819500	-11.455000	22.148153	0.000948	20.858296
163.046813	-2.979300	3.819600	-11.378000	22.140296	0.000950	20.842371
164.045303	-2.996700	3.819100	-11.443000	22.141371	0.000948	20.842498
165.046193	-2.982600	3.818900	-11.389000	22.156678	0.000951	20.856874
166.045296	-2.982900	3.820400	-11.394000	22.179237	0.000952	20.837261
167.045358	-2.977000	3.818900	-11.367000	22.164255	0.000951	20.828426
168.045293	-3.022900	3.817600	-11.539000	22.186189	0.000951	20.837583
169.047006	-3.016300	3.817300	-11.513000	22.174628	0.000953	20.827906
170.048641	-2.997500	3.818800	-11.446000	22.198929	0.000953	20.825684
171.046510	-3.020600	3.818200	-11.532000	22.224703	0.000954	20.829204
172.047370	-3.002000	3.817000	-11.458000	22.219473	0.000953	20.825864
173.046962	-3.010600	3.817600	-11.493000	22.254340	0.000954	20.822842
174.048006	-2.985600	3.818400	-11.399000	22.260623	0.000953	20.830082
175.048414	-3.006200	3.816800	-11.473000	22.256665	0.000954	20.819481
176.048192	-2.993000	3.817100	-11.423000	22.259577	0.000954	20.826664
177.046733	-2.993000	3.816200	-11.421000	22.271218	0.000956	20.839267
178.049737	-3.001700	3.816900	-11.456000	22.285481	0.000956	20.822729
179.049041	-2.993000	3.817100	-11.424000	22.266885	0.000955	20.806481
180.048903	-2.986100	3.816000	-11.395000	22.265341	0.000955	20.847133
181.049288	-2.991800	3.816500	-11.418000	22.246049	0.000954	20.822128
182.048382	-3.001800	3.816400	-11.454000	22.252781	0.000956	20.829816
183.048996	-2.998300	3.815600	-11.439000	22.298266	0.000957	20.826048
184.052841	-2.978600	3.815700	-11.364000	22.291414	0.000957	20.824403
185.049721	-2.989200	3.815000	-11.403000	22.289495	0.000956	20.843818
186.048962	-2.993500	3.814100	-11.416000	22.303652	0.000960	20.812949
187.050891	-2.989900	3.814100	-11.404000	22.322798	0.000956	20.822637
188.050035	-3.003900	3.812700	-11.452000	22.317660	0.000958	20.802794
189.051502	-3.014000	3.811900	-11.487000	22.352301	0.000958	20.804291
190.052915	-3.002100	3.812800	-11.445000	22.342657	0.000960	20.813126
191.050629	-2.985400	3.813800	-11.385000	22.364538	0.000960	20.818441
192.050073	-3.003700	3.812600	-11.450000	22.362919	0.000962	20.815398
193.053859	-2.999700	3.811400	-11.432000	22.369298	0.000961	20.812776
194.051155	-3.000600	3.811400	-11.436000	22.341113	0.000961	20.827226
195.051631	-2.995700	3.812100	-11.418000	22.390485	0.000963	20.814078
196.058127	-3.006300	3.810500	-11.454000	22.352654	0.000964	20.813653
197.058470	-3.001300	3.811600	-11.436000	22.379220	0.000963	20.800427
198.053477	-3.027600	3.810000	-11.534000	22.379616	0.000965	20.806987
199.056199	-3.011600	3.810000	-11.474000	22.379192	0.000965	20.838804
200.054964	-3.004500	3.811900	-11.452000	22.404760	0.000965	20.835485
201.054453	-3.003000	3.810500	-11.442000	22.394467	0.000966	20.820910
202.061228	-2.995600	3.810100	-11.413000	22.408548	0.000965	20.803717
203.053713	-3.005300	3.809500	-11.448000	22.388110	0.000967	20.809803
204.054933	-3.034700	3.808700	-11.558000	22.393817	0.000967	20.813621
205.058974	-2.988600	3.811100	-11.388000	22.398478	0.000967	20.833461
206.057652	-2.993600	3.808800	-11.401000	22.427060	0.000968	20.813720
207.053934	-2.995500	3.810300	-11.413000	22.431148	0.000967	20.800271
208.058012	-3.000700	3.809700	-11.430000	22.426611	0.000967	20.810900
209.056794	-2.994700	3.809400	-11.407000	22.437328	0.000968	20.815468
210.054453	-2.972900	3.809800	-11.325000	22.457712	0.000968	20.784199
211.060586	-2.964800	3.809800	-11.294000	22.455793	0.000969	20.819262
212.056329	-2.988700	3.807900	-11.379000	22.484452	0.000970	20.809082
213.054202	-2.989500	3.807400	-11.382000	22.513209	0.000970	20.808009
214.058054	-2.997100	3.807700	-11.411000	22.517071	0.000972	20.813299
215.058276	-3.001200	3.807900	-11.426000	22.493349	0.000972	20.819414
216.055715	-2.996900	3.807700	-11.410000	22.492900	0.000973	20.789567
217.056234	-2.992800	3.807100	-11.394000	22.527112	0.000974	20.806286
218.055098	-3.004600	3.806000	-11.434000	22.515276	0.000974	20.815769
219.053670	-2.997100	3.806900	-11.409000	22.513159	0.000975	20.807012
220.055844	-3.003900	3.806100	-11.432000	22.524819	0.000975	20.800671
221.062977	-3.001500	3.805700	-11.421000	22.525246	0.000975	20.803470
222.056880	-3.002200	3.804500	-11.421000	22.554871	0.000977	20.797104
223.058330	-3.017800	3.803800	-11.478000	22.539467	0.000976	20.800642
224.057472	-3.024700	3.804300	-11.506000	22.543908	0.000978	20.802719
225.055998	-3.018500	3.803500	-11.480000	22.553921	0.000978	20.809428
226.058777	-2.997100	3.805700	-11.405000	22.570713	0.000979	20.782150
227.057572	-3.000400	3.804600	-11.414000	22.588205	0.000977	20.793979
228.058367	-3.009600	3.804100	-11.447000	22.582499	0.000979	20.784472
229.059412	-2.990700	3.803900	-11.375000	22.612847	0.000980	20.799220
230.058346	-3.001500	3.802600	-11.412000	22.608236	0.000979	20.790809
231.059954	-3.005500	3.803600	-11.431000	22.629416	0.000980	20.781676
232.061923	-3.000100	3.803400	-11.410000	22.645087	0.000980	20.807804
233.060524	-3.021300	3.802200	-11.485000	22.651138	0.000981	20.802960
234.058298	-2.986800	3.802500	-11.356000	22.644190	0.000979	20.796474
235.063273	-2.996200	3.801500	-11.389000	22.675581	0.000980	20.800890
236.060598	-2.989800	3.802500	-11.367000	22.690111	0.000982	20.794581
237.060207	-3.012900	3.800900	-11.450000	22.669781	0.000980	20.792235
238.063325	-2.992900	3.801700	-11.376000	22.692202	0.000982	20.793831
239.061145	-3.024000	3.800600	-11.492000	22.711342	0.000983	20.789769
240.060267	-3.031600	3.799200	-11.517000	22.715824	0.000983	20.788095
241.064346	-3.000500	3.801600	-11.406000	22.711243	0.000987	20.807687
242.062005	-3.004200	3.800400	-11.416000	22.725143	0.000986	20.804542
243.060223	-3.007600	3.800600	-11.429000	22.737726	0.000985	20.785377
244.062134	-3.026900	3.798000	-11.494000	22.728580	0.000985	20.786648
245.059926	-3.002300	3.798200	-11.402000	22.705863	0.000986	20.789496
246.060555	-3.001500	3.799900	-11.404000	22.686854	0.000988	20.795586
247.061416	-2.965800	3.801400	-11.274000	22.677884	0.000987	20.802249
248.059270	-3.005500	3.799200	-11.418000	22.668021	0.000987	20.779567
249.061770	-3.022800	3.797600	-11.477000	22.659002	0.000989	20.804673
250.065118	-2.994100	3.798400	-11.372000	22.686310	0.000990	20.776075
251.061090	-2.999200	3.799900	-11.396000	22.701659	0.000988	20.781492
252.061239	-2.998500	3.797400	-11.385000	22.720964	0.000990	20.804149
253.063407	-3.012200	3.797600	-11.438000	22.719671	0.000991	20.788155
254.061955	-3.011200	3.797900	-11.435000	22.733551	0.000991	20.781195
255.062035	-3.026800	3.795500	-11.487000	22.741675	0.000992	20.767522
256.066829	-3.004200	3.797100	-11.406000	22.774410	0.000992	20.775183
257.063181	-3.000700	3.795800	-11.388000	22.788680	0.000990	20.779995
258.065133	-3.008300	3.796100	-11.419000	22.790853	0.000990	20.765102
259.069966	-3.001800	3.796800	-11.394000	22.797875	0.000991	20.775456
260.064637	-3.009900	3.796300	-11.425000	22.801813	0.000993	20.776082
261.065174	-3.032100	3.795200	-11.507000	22.817157	0.000994	20.778177
262.066421	-2.991600	3.794700	-11.349000	22.840950	0.000993	20.750802
263.065403	-2.994200	3.796600	-11.367000	22.830389	0.000993	20.777207
264.065389	-3.012900	3.795500	-11.435000	22.857318	0.000994	20.773838
265.068685	-2.973300	3.797300	-11.289000	22.844963	0.000996	20.764780
266.066291	-3.007300	3.793100	-11.407000	22.864919	0.000995	20.779083
267.067145	-2.992800	3.795000	-11.356000	22.887587	0.000996	20.771446
268.075739	-2.988600	3.794600	-11.338000	22.893489	0.000995	20.762660
269.065216	-2.992500	3.792000	-11.346000	22.906173	0.000996	20.782954
270.065820	-2.995200	3.793700	-11.361000	22.904202	0.000999	20.773867
271.068010	-2.992500	3.793600	-11.350000	22.893740	0.000998	20.774291
272.065739	-2.994700	3.793600	-11.359000	22.883406	0.000997	20.764412
