LabVIEW Measurement	
Writer_Version	2
Reader_Version	2
Separator	Tab
Decimal_Separator	.
Multi_Headings	No
X_Columns	One
Time_Pref	Absolute
Operator	admin
Description	Clolumns are: time, Current, Voltage, Power, Battery Temp, and Chamber Temp
Date	2024/08/16
Time	13:06:06.104549407958984375
***End_of_Header***	
	
Channels	6						
Samples	1	1	1	1	1	1	
Date	2024/09/04	2024/09/04	2024/09/04	2024/09/04	2024/09/04	2024/09/04	
Time	20:54:12.5616822242736816406	20:54:12.567684173583984375	20:54:12.5727224349975585938	20:54:12.5444722175598144531	20:54:12.5444722175598144531	20:54:12.5444722175598144531	
X_Dimension	Time	Time	Time	Time	Time	Time	
X0	0.0000000000000000E+0	0.0000000000000000E+0	0.0000000000000000E+0	0.0000000000000000E+0	0.0000000000000000E+0	0.0000000000000000E+0	
Delta_X	1.000000	1.000000	1.000000	1.000000	1.000000	1.000000	
***End_of_Header***							
X_Value	Untitled	Untitled 1	Untitled 2	Untitled 3	Untitled 4	Untitled 5	Comment
0.000000	0.010118	4.099800	0.041404	20.961047	0.000928	20.794631
1.004128	-3.004800	3.930700	-11.809000	20.966037	0.000925	20.795354
1.998573	-3.009000	3.923800	-11.806000	20.957153	0.000925	20.792159
3.000221	-3.003300	3.918700	-11.768000	20.963341	0.000926	20.795029
4.000115	-2.979800	3.915300	-11.666000	20.960818	0.000924	20.781599
5.002118	-3.004500	3.911400	-11.751000	20.969101	0.000923	20.818333
6.000193	-3.008000	3.909500	-11.759000	20.975088	0.000923	20.798717
7.001711	-2.994000	3.905900	-11.694000	20.962110	0.000923	20.786685
8.001551	-3.017300	3.904000	-11.779000	20.973687	0.000921	20.796367
9.004168	-3.007500	3.902000	-11.734000	20.992025	0.000921	20.793845
10.000754	-3.019800	3.899800	-11.775000	20.977177	0.000920	20.786581
11.003314	-3.001600	3.899600	-11.704000	20.976728	0.000919	20.787555
12.000868	-3.017400	3.897600	-11.760000	20.974629	0.000919	20.802051
13.001516	-3.018500	3.894300	-11.754000	20.998681	0.000920	20.793864
14.003043	-3.005600	3.895200	-11.706000	20.980490	0.000919	20.807438
15.004308	-3.010100	3.893400	-11.718000	20.986752	0.000919	20.796158
16.007320	-3.025700	3.889900	-11.768000	21.017192	0.000919	20.797680
17.006243	-3.005700	3.891600	-11.696000	21.013845	0.000917	20.799548
18.005167	-3.010200	3.890400	-11.709000	21.019035	0.000917	20.787195
19.008331	-2.992300	3.889000	-11.636000	21.016863	0.000915	20.791661
20.004901	-3.014400	3.887800	-11.719000	21.013843	0.000914	20.826098
21.008046	-3.009600	3.887300	-11.698000	21.036871	0.000914	20.817363
22.006180	-3.000300	3.885900	-11.658000	21.023871	0.000912	20.808153
23.005528	-3.008500	3.885600	-11.688000	21.058351	0.000914	20.801863
24.008793	-2.988900	3.886600	-11.615000	21.047971	0.000912	20.806654
25.006190	-2.988200	3.883300	-11.602000	21.060170	0.000911	20.789458
26.008555	-2.984800	3.885200	-11.596000	21.056701	0.000910	20.802584
27.012454	-3.009500	3.882000	-11.682000	21.066881	0.000910	20.810870
28.007374	-2.994200	3.881900	-11.622000	21.075137	0.000910	20.787359
29.007559	-2.984600	3.881400	-11.584000	21.067780	0.000908	20.791380
30.011907	-3.008200	3.881600	-11.676000	21.052234	0.000909	20.828461
31.011903	-2.990100	3.879600	-11.600000	21.081600	0.000908	20.808996
32.009183	-3.007600	3.880100	-11.669000	21.079828	0.000908	20.830457
33.015604	-3.009800	3.879700	-11.676000	21.115630	0.000905	20.800836
34.012556	-2.999600	3.879600	-11.636000	21.090130	0.000909	20.811839
35.010914	-2.988000	3.879500	-11.592000	21.074114	0.000906	20.809570
36.008964	-3.003200	3.877800	-11.644000	21.118421	0.000906	20.798886
37.014102	-2.995700	3.875900	-11.609000	21.117075	0.000907	20.806075
38.012606	-3.004500	3.875800	-11.643000	21.130371	0.000906	20.787132
39.012590	-3.006600	3.875600	-11.652000	21.131944	0.000905	20.826163
40.012515	-2.989800	3.875800	-11.586000	21.119943	0.000906	20.808943
41.011284	-3.003700	3.875400	-11.639000	21.141998	0.000905	20.815831
42.012148	-2.998300	3.874400	-11.614000	21.150954	0.000905	20.829057
43.010846	-2.996100	3.875300	-11.610000	21.156442	0.000904	20.823167
44.011758	-3.016900	3.873800	-11.686000	21.171935	0.000905	20.827759
45.011270	-2.998200	3.874000	-11.614000	21.170589	0.000905	20.822620
46.011755	-2.978600	3.873200	-11.536000	21.204766	0.000904	20.809868
47.011324	-2.994400	3.872300	-11.594000	21.180742	0.000904	20.824241
48.013603	-3.004400	3.872000	-11.633000	21.206613	0.000902	20.804603
49.014814	-2.984600	3.871100	-11.553000	21.213224	0.000901	20.814535
50.012964	-2.979900	3.872100	-11.537000	21.219984	0.000903	20.807547
51.011655	-3.002900	3.870600	-11.622000	21.204367	0.000904	20.809468
52.012315	-2.989600	3.871400	-11.573000	21.220459	0.000902	20.813239
53.012132	-2.993800	3.870100	-11.585000	21.247724	0.000901	20.805427
54.011917	-3.023300	3.867400	-11.691000	21.217044	0.000904	20.813141
55.012998	-2.991100	3.869600	-11.571000	21.247925	0.000902	20.792825
56.014216	-3.007200	3.870900	-11.639000	21.228991	0.000901	20.807549
57.012577	-3.007700	3.868500	-11.634000	21.241739	0.000902	20.802758
58.012054	-2.998400	3.869200	-11.600000	21.279658	0.000903	20.807501
59.014381	-3.004400	3.868000	-11.619000	21.278708	0.000901	20.810818
60.014689	-2.996500	3.867800	-11.589000	21.286740	0.000902	20.808423
61.013466	-3.014300	3.868000	-11.657000	21.302879	0.000901	20.838318
62.014324	-3.026900	3.864400	-11.695000	21.296145	0.000901	20.819253
63.013828	-2.972900	3.868500	-11.498000	21.308567	0.000902	20.823620
64.014991	-2.999900	3.865800	-11.596000	21.289336	0.000902	20.808648
65.016810	-2.987900	3.867700	-11.555000	21.317247	0.000902	20.823769
66.017380	-2.984700	3.867600	-11.541000	21.327326	0.000902	20.814413
67.016684	-3.010600	3.865400	-11.636000	21.329197	0.000900	20.803956
68.016527	-3.011500	3.865300	-11.639000	21.343164	0.000900	20.817930
69.017954	-2.996700	3.865400	-11.582000	21.350197	0.000899	20.809793
70.018993	-3.009900	3.866100	-11.634000	21.354613	0.000903	20.834600
71.018199	-2.986300	3.864300	-11.539000	21.352541	0.000902	20.805501
72.018921	-2.991500	3.864700	-11.559000	21.377086	0.000902	20.819152
73.019240	-2.999500	3.865900	-11.595000	21.373644	0.000901	20.822347
74.019785	-2.987300	3.863700	-11.541000	21.382874	0.000903	20.823047
75.021723	-3.009500	3.863200	-11.625000	21.392028	0.000902	20.822247
76.019708	-3.015900	3.862100	-11.646000	21.410284	0.000901	20.827237
77.020271	-2.996100	3.864900	-11.579000	21.406665	0.000900	20.826461
78.026845	-2.980100	3.864300	-11.514000	21.401678	0.000901	20.822419
79.019587	-3.002600	3.862600	-11.596000	21.415746	0.000901	20.831753
80.021062	-3.004600	3.862200	-11.604000	21.428616	0.000901	20.821397
81.024153	-2.999800	3.862600	-11.586000	21.418415	0.000900	20.847226
82.021230	-2.983300	3.862800	-11.523000	21.443379	0.000901	20.831426
83.021439	-3.001500	3.862200	-11.591000	21.439464	0.000902	20.829880
84.021831	-3.006300	3.862100	-11.608000	21.440960	0.000901	20.811937
85.025019	-3.021300	3.861000	-11.664000	21.471313	0.000903	20.832824
86.022769	-3.003200	3.861600	-11.596000	21.472387	0.000901	20.826312
87.022888	-2.990500	3.860700	-11.545000	21.464704	0.000900	20.824788
88.024484	-3.018800	3.860100	-11.651000	21.477225	0.000900	20.827834
89.023759	-3.010600	3.859600	-11.619000	21.508124	0.000902	20.837414
90.023981	-3.003400	3.858700	-11.587000	21.467146	0.000902	20.843826
91.024033	-2.998500	3.858900	-11.569000	21.495104	0.000899	20.835766
92.027760	-3.004100	3.858800	-11.589000	21.524707	0.000901	20.842628
93.024204	-3.013600	3.859000	-11.628000	21.526901	0.000901	20.827279
94.024790	-2.998800	3.859000	-11.571000	21.541789	0.000899	20.849289
95.029160	-3.000800	3.859000	-11.580000	21.532860	0.000902	20.810009
96.023268	-3.002700	3.857800	-11.583000	21.562114	0.000900	20.819842
97.026209	-2.986300	3.859100	-11.523000	21.565756	0.000901	20.836288
98.028988	-3.001100	3.859100	-11.580000	21.570942	0.000902	20.827727
99.027632	-3.010100	3.858100	-11.612000	21.564581	0.000900	20.841750
100.031988	-3.007800	3.856100	-11.596000	21.573785	0.000902	20.832468
101.034303	-2.996900	3.857200	-11.558000	21.601141	0.000901	20.838506
102.028964	-3.001200	3.857300	-11.575000	21.600567	0.000903	20.835562
103.028360	-3.023400	3.855400	-11.655000	21.624707	0.000902	20.840752
104.033942	-2.985200	3.856800	-11.511000	21.611089	0.000901	20.833288
105.031665	-2.990800	3.856000	-11.532000	21.615777	0.000902	20.819963
106.030794	-2.984300	3.856700	-11.508000	21.618970	0.000902	20.832640
107.033934	-3.007500	3.854100	-11.589000	21.623185	0.000902	20.842547
108.031519	-2.983000	3.856100	-11.502000	21.632386	0.000901	20.838479
109.031589	-3.039300	3.853800	-11.712000	21.642683	0.000903	20.835508
110.032745	-3.003200	3.854000	-11.573000	21.671159	0.000902	20.819909
111.032536	-3.015700	3.853000	-11.619000	21.671784	0.000904	20.841871
112.033787	-3.002200	3.853900	-11.569000	21.681684	0.000899	20.832812
113.033494	-2.985100	3.854200	-11.504000	21.690409	0.000902	20.847233
114.033127	-2.993700	3.854800	-11.538000	21.692430	0.000903	20.858739
115.036988	-3.015500	3.853100	-11.618000	21.718087	0.000903	20.838424
116.034330	-2.993800	3.853800	-11.536000	21.705543	0.000904	20.838198
117.037213	-2.979200	3.855300	-11.485000	21.710656	0.000903	20.862754
118.035631	-3.010200	3.853700	-11.600000	21.733248	0.000903	20.846958
119.036119	-3.005900	3.852800	-11.580000	21.696992	0.000904	20.856666
120.039427	-3.002300	3.853000	-11.567000	21.707513	0.000904	20.862928
121.037307	-2.996100	3.854400	-11.547000	21.733796	0.000905	20.854145
122.040871	-2.995300	3.853600	-11.542000	21.722150	0.000904	20.875205
123.036691	-3.007300	3.851600	-11.581000	21.746112	0.000904	20.848453
124.040010	-3.002300	3.852200	-11.564000	21.752993	0.000904	20.852021
125.036902	-2.978000	3.853500	-11.474000	21.749952	0.000907	20.852770
126.037299	-3.009300	3.850800	-11.587000	21.752368	0.000906	20.858033
127.037826	-2.998100	3.850900	-11.545000	21.746383	0.000906	20.849199
128.041103	-2.977700	3.851100	-11.466000	21.774261	0.000907	20.828736
129.042479	-2.968600	3.851900	-11.434000	21.791016	0.000907	20.852143
130.040766	-2.998800	3.850100	-11.545000	21.793608	0.000909	20.845729
131.041757	-2.992400	3.851300	-11.523000	21.813379	0.000907	20.858879
132.041996	-3.012100	3.849800	-11.594000	21.814101	0.000907	20.879040
133.040270	-2.998000	3.850900	-11.543000	21.823176	0.000908	20.875322
134.045589	-3.001800	3.850000	-11.555000	21.849678	0.000911	20.871502
135.045786	-3.011500	3.849000	-11.589000	21.833123	0.000908	20.872949
136.040481	-3.015200	3.849200	-11.605000	21.866232	0.000909	20.871950
137.043094	-2.972800	3.850800	-11.447000	21.867829	0.000910	20.863591
138.042472	-2.992100	3.849800	-11.517000	21.877926	0.000912	20.866585
139.043586	-3.017600	3.850000	-11.615000	21.878997	0.000909	20.890415
140.043439	-2.988300	3.849200	-11.500000	21.885155	0.000911	20.868606
141.042036	-2.984000	3.849800	-11.486000	21.901833	0.000913	20.885772
142.041506	-3.003400	3.848000	-11.555000	21.902455	0.000911	20.861267
143.043079	-3.016300	3.847000	-11.602000	21.905022	0.000912	20.875215
144.043137	-3.016800	3.847100	-11.604000	21.907040	0.000912	20.875812
145.045622	-3.004500	3.848400	-11.561000	21.902551	0.000910	20.888387
146.043191	-3.001000	3.847900	-11.546000	21.915965	0.000912	20.882849
147.041834	-2.983400	3.847800	-11.479000	21.921724	0.000914	20.883398
148.044531	-3.005300	3.847600	-11.562000	21.923841	0.000914	20.885042
149.042686	-2.972300	3.849100	-11.439000	21.913866	0.000913	20.872214
150.043267	-2.979100	3.846800	-11.460000	21.926880	0.000914	20.886187
151.044651	-2.985800	3.846300	-11.483000	21.907109	0.000914	20.883467
152.046839	-3.009800	3.844600	-11.570000	21.945027	0.000914	20.875430
153.046103	-3.004400	3.846500	-11.555000	21.939665	0.000912	20.880494
154.047222	-2.980600	3.846000	-11.461000	21.968609	0.000914	20.880544
155.044796	-2.995400	3.846200	-11.520000	21.971648	0.000915	20.862724
156.048307	-3.000700	3.843800	-11.532000	21.971998	0.000915	20.882039
157.047343	-2.984200	3.844900	-11.473000	21.957488	0.000915	20.884584
158.047880	-3.001300	3.844700	-11.538000	21.970302	0.000913	20.871333
159.053711	-3.007000	3.843200	-11.556000	21.985881	0.000916	20.879816
160.049016	-3.021800	3.844300	-11.615000	22.010485	0.000916	20.883582
161.050530	-2.995600	3.843600	-11.513000	21.994430	0.000914	20.875572
162.050385	-3.030800	3.842700	-11.644000	22.000936	0.000915	20.868808
163.051584	-3.027600	3.842100	-11.631000	22.004773	0.000918	20.886872
164.053192	-3.027200	3.842200	-11.630000	22.010804	0.000916	20.874419
165.053078	-3.000700	3.841900	-11.528000	22.026236	0.000918	20.904090
166.056306	-2.988900	3.844400	-11.490000	22.025612	0.000918	20.888767
167.055443	-2.965900	3.844500	-11.401000	22.027231	0.000917	20.891337
168.053908	-3.009900	3.842900	-11.565000	22.019502	0.000920	20.884548
169.057991	-3.004500	3.843200	-11.545000	22.037375	0.000920	20.900068
170.054098	-3.003500	3.841700	-11.537000	22.058089	0.000920	20.880503
171.054407	-2.990200	3.843600	-11.492000	22.073768	0.000918	20.903310
172.060740	-2.998000	3.843400	-11.521000	22.056118	0.000921	20.896072
173.053990	-3.007900	3.842700	-11.557000	22.056168	0.000921	20.914138
174.054055	-3.039900	3.840100	-11.672000	22.065841	0.000920	20.900590
175.057141	-3.012700	3.841300	-11.571000	22.067484	0.000921	20.913139
176.053462	-3.012400	3.840400	-11.567000	22.070301	0.000921	20.911691
177.054998	-3.012200	3.840000	-11.565000	22.085831	0.000920	20.899265
178.055527	-2.985000	3.842500	-11.468000	22.099192	0.000921	20.902683
179.055473	-3.009400	3.841000	-11.558000	22.110060	0.000922	20.910718
180.057552	-3.003200	3.839500	-11.529000	22.120779	0.000923	20.903433
181.057764	-3.007100	3.839800	-11.545000	22.102556	0.000922	20.904155
182.059454	-2.998500	3.839700	-11.512000	22.133887	0.000924	20.906599
183.057932	-2.985800	3.840300	-11.465000	22.134961	0.000923	20.904828
184.058947	-2.998900	3.838000	-11.508000	22.163898	0.000923	20.892549
185.060972	-2.998200	3.841600	-11.515000	22.176060	0.000922	20.896666
186.060271	-2.990100	3.839700	-11.481000	22.158887	0.000925	20.893697
187.057480	-2.999700	3.840400	-11.519000	22.177107	0.000924	20.910514
188.057542	-2.992100	3.838200	-11.483000	22.197221	0.000924	20.912160
189.061265	-3.007300	3.839300	-11.545000	22.191165	0.000925	20.912736
190.057064	-3.006600	3.836900	-11.534000	22.206094	0.000925	20.891175
191.057263	-2.995100	3.837300	-11.492000	22.201905	0.000926	20.905471
192.059455	-2.992500	3.836900	-11.480000	22.210229	0.000927	20.910960
193.059312	-3.011500	3.837500	-11.556000	22.212398	0.000926	20.914554
194.060330	-3.011300	3.837700	-11.556000	22.227652	0.000929	20.897111
195.059278	-2.989600	3.836000	-11.466000	22.242032	0.000931	20.912457
196.060307	-2.967400	3.838800	-11.390000	22.222441	0.000929	20.921289
197.059999	-2.977800	3.837300	-11.426000	22.250829	0.000928	20.900404
198.063142	-3.020400	3.835300	-11.582000	22.256386	0.000929	20.927302
199.061298	-3.021300	3.834900	-11.586000	22.230763	0.000931	20.922035
200.064404	-2.992500	3.836000	-11.478000	22.232880	0.000931	20.927000
201.066521	-3.007900	3.835000	-11.534000	22.230138	0.000932	20.903868
202.063501	-3.001100	3.835000	-11.508000	22.269243	0.000931	20.941596
203.063446	-2.988500	3.835400	-11.460000	22.271237	0.000931	20.922257
204.073140	-3.003200	3.835900	-11.518000	22.278838	0.000933	20.929393
205.065695	-3.008300	3.836300	-11.540000	22.270811	0.000933	20.934158
206.063216	-3.012200	3.834100	-11.548000	22.271882	0.000932	20.944238
207.064352	-3.009600	3.833900	-11.538000	22.287781	0.000933	20.921279
208.063570	-2.993100	3.835800	-11.480000	22.293663	0.000936	20.919583
209.066043	-3.006300	3.834500	-11.527000	22.300041	0.000935	20.926917
210.065591	-3.008500	3.833600	-11.532000	22.316639	0.000934	20.936898
211.067199	-3.002700	3.832700	-11.508000	22.312249	0.000933	20.944354
212.067442	-3.008400	3.831700	-11.527000	22.324539	0.000935	20.934850
213.068040	-3.017400	3.831500	-11.560000	22.322318	0.000935	20.947324
214.069755	-2.996600	3.833000	-11.483000	22.355140	0.000936	20.933251
215.070566	-2.995200	3.833100	-11.479000	22.347936	0.000937	20.947372
216.068235	-2.988700	3.831700	-11.451000	22.359824	0.000936	20.936044
217.074574	-3.007000	3.830400	-11.517000	22.378239	0.000937	20.948793
218.069193	-3.006400	3.831700	-11.518000	22.371360	0.000937	20.949965
219.074122	-3.035500	3.830100	-11.625000	22.366476	0.000938	20.909517
220.069914	-2.984700	3.832100	-11.436000	22.346711	0.000940	20.946620
221.072764	-3.034100	3.831400	-11.623000	22.373002	0.000939	20.925534
222.071947	-3.018400	3.830600	-11.562000	22.375569	0.000938	20.949438
223.071139	-2.975100	3.831100	-11.396000	22.351993	0.000940	20.949537
224.072460	-2.997300	3.829300	-11.477000	22.363181	0.000941	20.968325
225.072886	-3.009300	3.830300	-11.525000	22.370335	0.000941	20.947516
226.072984	-3.012400	3.829900	-11.536000	22.393884	0.000943	20.947390
227.073446	-3.010000	3.829600	-11.526000	22.402457	0.000944	20.948388
228.071750	-3.013700	3.828400	-11.536000	22.427050	0.000943	20.927500
229.072310	-2.995100	3.829600	-11.470000	22.462612	0.000944	20.951256
230.072094	-2.999500	3.829700	-11.485000	22.475046	0.000944	20.955647
231.072792	-2.998100	3.828900	-11.479000	22.450725	0.000943	20.976333
232.073431	-2.992400	3.829100	-11.457000	22.465676	0.000946	20.963806
233.076588	-3.006700	3.828500	-11.511000	22.468939	0.000946	20.947636
234.077719	-2.999000	3.829200	-11.481000	22.455035	0.000945	20.940824
235.074345	-3.004700	3.828900	-11.503000	22.469487	0.000948	20.973785
236.074534	-2.993500	3.829500	-11.463000	22.491638	0.000947	20.944291
237.078010	-2.995600	3.827700	-11.464000	22.492087	0.000947	20.950903
238.073668	-2.993000	3.827600	-11.455000	22.513617	0.000948	20.962981
239.073930	-2.994400	3.827600	-11.459000	22.506340	0.000948	20.964701
240.078935	-3.024300	3.826900	-11.571000	22.511748	0.000949	20.961583
241.078255	-3.015200	3.826600	-11.536000	22.512245	0.000947	20.981992
242.075356	-2.992200	3.827600	-11.452000	22.522136	0.000948	20.955392
243.079033	-2.982700	3.827500	-11.414000	22.515509	0.000949	20.984313
244.080487	-2.982500	3.826900	-11.412000	22.536539	0.000950	20.957489
245.077379	-2.988700	3.825100	-11.430000	22.529762	0.000952	20.960184
246.084609	-2.999400	3.825600	-11.473000	22.563624	0.000952	20.959959
247.081007	-3.003500	3.826600	-11.492000	22.563175	0.000951	20.969940
248.079087	-3.013200	3.824100	-11.521000	22.577204	0.000950	20.959336
249.079228	-3.006900	3.825600	-11.502000	22.576706	0.000953	20.964052
250.078199	-2.983700	3.826000	-11.414000	22.597437	0.000953	20.962056
251.078902	-2.987800	3.824800	-11.426000	22.613706	0.000954	20.959385
252.078583	-2.991600	3.825300	-11.442000	22.616298	0.000954	20.962455
253.082980	-2.988700	3.824300	-11.429000	22.602421	0.000955	20.961832
254.082189	-3.011100	3.824300	-11.514000	22.599779	0.000954	20.959660
255.083860	-3.017500	3.824300	-11.539000	22.613931	0.000953	20.956766
256.084473	-2.994500	3.823900	-11.449000	22.604437	0.000957	20.954843
257.082407	-2.998400	3.824100	-11.465000	22.622203	0.000955	20.964575
258.084340	-2.996200	3.823200	-11.454000	22.639794	0.000956	20.967970
259.085086	-2.998300	3.823900	-11.464000	22.637451	0.000957	20.962779
260.084599	-3.021300	3.822000	-11.547000	22.635110	0.000956	20.962805
261.083788	-3.001900	3.824100	-11.478000	22.642236	0.000957	20.939125
262.087012	-3.003600	3.823300	-11.482000	22.659428	0.000957	20.948284
263.086717	-3.020900	3.821600	-11.543000	22.666132	0.000957	20.967798
264.084667	-3.007000	3.821000	-11.488000	22.662318	0.000958	20.950230
265.089911	-2.999700	3.821000	-11.460000	22.658756	0.000959	20.942396
266.084312	-2.991100	3.821000	-11.428000	22.655866	0.000961	20.952302
267.088204	-2.990500	3.821400	-11.427000	22.660549	0.000961	20.931865
268.090415	-3.010500	3.821700	-11.504000	22.656191	0.000960	20.944567
269.090608	-3.012800	3.821500	-11.512000	22.680135	0.000963	20.929672
270.090177	-2.982700	3.821400	-11.397000	22.683921	0.000962	20.945791
271.092706	-2.996500	3.821200	-11.448000	22.683498	0.000962	20.959115
272.089313	-3.015100	3.818300	-11.511000	22.693114	0.000962	20.944093
