LabVIEW Measurement	
Writer_Version	2
Reader_Version	2
Separator	Tab
Decimal_Separator	.
Multi_Headings	No
X_Columns	One
Time_Pref	Absolute
Operator	admin
Description	Clolumns are: time, Current, Voltage, Power, Battery Temp, and Chamber Temp
Date	2024/08/16
Time	13:06:06.104549407958984375
***End_of_Header***	
	
Channels	6						
Samples	1	1	1	1	1	1	
Date	2024/08/31	2024/08/31	2024/08/31	2024/08/31	2024/08/31	2024/08/31	
Time	04:53:26.9105296134948730469	04:53:26.9145298004150390625	04:53:26.9195294380187988281	04:53:26.8955297470092773437	04:53:26.8955297470092773437	04:53:26.8955297470092773437	
X_Dimension	Time	Time	Time	Time	Time	Time	
X0	0.0000000000000000E+0	0.0000000000000000E+0	0.0000000000000000E+0	0.0000000000000000E+0	0.0000000000000000E+0	0.0000000000000000E+0	
Delta_X	1.000000	1.000000	1.000000	1.000000	1.000000	1.000000	
***End_of_Header***							
X_Value	Untitled	Untitled 1	Untitled 2	Untitled 3	Untitled 4	Untitled 5	Comment
0.000000	0.017840	4.106200	0.073210	21.027189	0.000964	20.778281
1.001001	-3.006500	3.941400	-11.849000	21.019897	0.000964	20.788531
2.003999	-3.014800	3.932700	-11.856000	21.041721	0.000963	20.786652
3.000000	-2.991100	3.927900	-11.748000	21.023103	0.000961	20.761866
4.004000	-2.991300	3.924800	-11.740000	21.020181	0.000960	20.776488
4.999999	-2.984500	3.921800	-11.703000	21.012277	0.000958	20.760521
6.000517	-2.981300	3.918200	-11.680000	21.027973	0.000958	20.770056
6.999517	-2.994300	3.916200	-11.725000	21.020629	0.000959	20.795902
8.000517	-2.983600	3.913400	-11.675000	21.030680	0.000955	20.774660
9.000518	-3.004000	3.910700	-11.747000	21.035765	0.000955	20.780695
10.003519	-2.971700	3.910200	-11.618000	21.036877	0.000956	20.771375
11.003036	-3.000300	3.907000	-11.720000	21.031766	0.000955	20.788549
12.001039	-3.000400	3.905500	-11.717000	21.050961	0.000955	20.790204
13.003037	-3.013700	3.903500	-11.763000	21.040040	0.000954	20.774065
14.003038	-3.003900	3.901100	-11.717000	21.044065	0.000954	20.803696
15.006038	-3.024000	3.900600	-11.793000	21.031369	0.000952	20.782936
16.003556	-2.990400	3.900900	-11.664000	21.078352	0.000951	20.780617
17.003070	-2.995600	3.900400	-11.683000	21.074145	0.000952	20.789686
18.005071	-2.990700	3.898400	-11.658000	21.063449	0.000949	20.794635
19.003102	-2.992200	3.898700	-11.664000	21.078274	0.000949	20.785281
20.005102	-2.993100	3.896400	-11.661000	21.077722	0.000950	20.793738
21.003101	-3.000800	3.895100	-11.688000	21.097184	0.000948	20.798980
22.003101	-3.003400	3.894200	-11.695000	21.099743	0.000948	20.793006
23.008101	-2.988200	3.893900	-11.635000	21.081170	0.000946	20.794342
24.008102	-2.996500	3.893200	-11.664000	21.096425	0.000948	20.795376
25.004775	-3.001000	3.893500	-11.683000	21.114068	0.000948	20.775565
26.005779	-2.995200	3.892300	-11.657000	21.135562	0.000945	20.791376
27.006771	-2.977500	3.891300	-11.585000	21.119023	0.000945	20.795221
28.005799	-3.021300	3.888600	-11.747000	21.128530	0.000945	20.770591
29.011769	-2.987400	3.890000	-11.620000	21.125763	0.000944	20.771142
30.008229	-3.007700	3.887600	-11.692000	21.134537	0.000944	20.787505
31.013645	-3.011500	3.888500	-11.710000	21.179593	0.000943	20.806971
32.008838	-2.991600	3.888100	-11.629000	21.164796	0.000942	20.792169
33.007839	-2.999400	3.886400	-11.655000	21.173319	0.000942	20.793109
34.010837	-3.025000	3.885200	-11.751000	21.152738	0.000943	20.788169
35.007960	-2.977900	3.885100	-11.567000	21.169036	0.000941	20.817273
36.007367	-3.012600	3.884900	-11.702000	21.163063	0.000942	20.792333
37.008255	-2.991700	3.883500	-11.616000	21.196269	0.000941	20.805635
38.008176	-2.981600	3.884800	-11.582000	21.201698	0.000940	20.800635
39.008424	-3.024400	3.883200	-11.744000	21.212186	0.000942	20.785522
40.010694	-2.989400	3.883700	-11.608000	21.197932	0.000940	20.784539
41.008337	-3.008900	3.882200	-11.680000	21.218761	0.000938	20.791151
42.009713	-3.021900	3.882400	-11.732000	21.222932	0.000939	20.795798
43.014880	-2.993000	3.882000	-11.618000	21.208876	0.000938	20.789323
44.011878	-2.982500	3.882100	-11.577000	21.233885	0.000938	20.808652
45.014276	-2.996800	3.881400	-11.631000	21.223699	0.000938	20.796091
46.011397	-3.004300	3.878900	-11.652000	21.231446	0.000937	20.800048
47.012400	-3.015100	3.878400	-11.692000	21.241322	0.000938	20.795703
48.013778	-3.018900	3.878800	-11.709000	21.233169	0.000937	20.792763
49.012930	-3.012700	3.878500	-11.683000	21.261470	0.000937	20.809694
50.014135	-3.004100	3.879300	-11.652000	21.246699	0.000935	20.809143
51.016375	-3.008500	3.877000	-11.663000	21.255627	0.000935	20.810487
52.013376	-2.994400	3.877800	-11.611000	21.261134	0.000935	20.820263
53.013604	-3.002200	3.877200	-11.638000	21.268321	0.000936	20.808487
54.014754	-2.993900	3.878000	-11.608000	21.288097	0.000935	20.804565
55.013248	-2.997500	3.877200	-11.620000	21.298619	0.000935	20.798969
56.016568	-3.017300	3.875600	-11.693000	21.287296	0.000936	20.805185
57.015863	-3.025900	3.874100	-11.722000	21.310830	0.000934	20.812134
58.016690	-3.012300	3.874200	-11.669000	21.314914	0.000936	20.801047
59.016688	-3.030700	3.875200	-11.743000	21.324703	0.000935	20.801832
60.017038	-3.011400	3.874300	-11.667000	21.324979	0.000934	20.821073
61.020037	-3.000800	3.873700	-11.623000	21.325246	0.000934	20.806642
62.016302	-3.012100	3.874400	-11.669000	21.340670	0.000935	20.798840
63.020481	-2.995000	3.874500	-11.603000	21.360291	0.000934	20.809935
64.021214	-2.989500	3.875800	-11.585000	21.375060	0.000935	20.820918
65.018331	-3.008500	3.872500	-11.650000	21.361764	0.000934	20.811409
66.017387	-2.981900	3.873900	-11.551000	21.393413	0.000934	20.831220
67.019421	-3.009200	3.871300	-11.647000	21.384245	0.000934	20.809245
68.017992	-3.001500	3.872400	-11.622000	21.414627	0.000932	20.823996
69.018554	-3.021500	3.871700	-11.697000	21.394886	0.000934	20.788124
70.018208	-2.974600	3.872500	-11.518000	21.390966	0.000935	20.825926
71.018431	-3.005700	3.870300	-11.631000	21.423613	0.000932	20.824926
72.022433	-3.005600	3.870800	-11.633000	21.427681	0.000933	20.817616
73.020534	-3.007300	3.870100	-11.636000	21.432764	0.000933	20.815590
74.023533	-3.001000	3.870800	-11.615000	21.435418	0.000932	20.828203
75.021110	-3.014800	3.869700	-11.666000	21.424708	0.000934	20.802314
76.024058	-2.988400	3.869600	-11.561000	21.452237	0.000933	20.829384
77.023688	-3.008500	3.870200	-11.641000	21.470727	0.000930	20.828444
78.024907	-3.011600	3.870200	-11.653000	21.474733	0.000931	20.825340
79.024992	-3.020400	3.869200	-11.686000	21.478335	0.000932	20.837953
80.025152	-3.002800	3.868400	-11.615000	21.467772	0.000932	20.814108
81.023382	-3.010800	3.869900	-11.651000	21.486416	0.000933	20.826599
82.025110	-2.991500	3.868500	-11.571000	21.489329	0.000931	20.819556
83.027337	-2.977700	3.870100	-11.523000	21.498332	0.000931	20.828565
84.025527	-2.992000	3.869200	-11.575000	21.508490	0.000932	20.839677
85.030526	-2.998400	3.868600	-11.598000	21.510015	0.000934	20.821763
86.025529	-3.007000	3.867900	-11.630000	21.512436	0.000931	20.828453
87.025587	-3.018000	3.866900	-11.670000	21.533837	0.000932	20.829953
88.028572	-3.010500	3.865700	-11.637000	21.536448	0.000931	20.841100
89.027126	-3.025900	3.866800	-11.700000	21.558288	0.000932	20.845410
90.025209	-3.018900	3.865100	-11.667000	21.549268	0.000932	20.824056
91.025227	-3.015400	3.865100	-11.653000	21.544710	0.000932	20.840832
92.025440	-3.007400	3.864800	-11.622000	21.530727	0.000933	20.836798
93.028023	-3.024700	3.865000	-11.689000	21.566162	0.000933	20.844281
94.032068	-2.987000	3.866400	-11.548000	21.568316	0.000933	20.850229
95.028144	-2.995700	3.866600	-11.582000	21.582988	0.000931	20.828401
96.027202	-3.009100	3.864700	-11.628000	21.578534	0.000931	20.840539
97.027704	-2.997200	3.864000	-11.580000	21.595221	0.000931	20.849652
98.028350	-2.999100	3.866700	-11.595000	21.601459	0.000931	20.835031
99.030526	-3.006500	3.865600	-11.620000	21.606800	0.000932	20.847488
100.028559	-3.012300	3.864100	-11.639000	21.626579	0.000932	20.836936
101.029526	-2.989500	3.864000	-11.551000	21.620420	0.000932	20.868229
102.030546	-3.003900	3.863400	-11.604000	21.626424	0.000933	20.857168
103.034002	-3.000300	3.863500	-11.590000	21.618628	0.000932	20.858375
104.032028	-2.988900	3.864000	-11.548000	21.665276	0.000933	20.833462
105.032027	-2.990600	3.862700	-11.551000	21.657032	0.000934	20.845126
106.030191	-2.992000	3.862600	-11.555000	21.667327	0.000932	20.848789
107.032012	-3.018800	3.862600	-11.659000	21.685994	0.000932	20.860358
108.030579	-2.966500	3.864200	-11.462000	21.688199	0.000933	20.858772
109.031576	-3.014500	3.862700	-11.642000	21.699389	0.000932	20.859065
110.032870	-2.992400	3.862500	-11.558000	21.683617	0.000933	20.852763
111.030957	-2.988200	3.861800	-11.539000	21.701698	0.000934	20.865168
112.034994	-2.997400	3.861400	-11.573000	21.712862	0.000933	20.846470
113.033007	-2.992200	3.862000	-11.554000	21.718676	0.000932	20.852289
114.032552	-2.989200	3.860300	-11.538000	21.733234	0.000932	20.854531
115.034517	-2.978900	3.862200	-11.504000	21.732235	0.000932	20.850686
116.034517	-2.982600	3.861600	-11.517000	21.732442	0.000930	20.858479
117.036681	-2.995600	3.861300	-11.565000	21.734018	0.000933	20.863375
118.033681	-2.994000	3.860700	-11.557000	21.726257	0.000933	20.865565
119.033954	-2.981700	3.860200	-11.510000	21.745595	0.000933	20.850781
120.034989	-2.985600	3.859900	-11.522000	21.744182	0.000933	20.850315
121.038267	-3.003400	3.858900	-11.589000	21.745992	0.000934	20.871091
122.034266	-2.990700	3.858500	-11.539000	21.756182	0.000933	20.859479
123.034894	-3.014200	3.858300	-11.629000	21.775054	0.000934	20.889745
124.034896	-2.977100	3.860500	-11.492000	21.776234	0.000933	20.877177
125.035060	-3.027200	3.859000	-11.681000	21.800662	0.000936	20.868436
126.038078	-3.002400	3.858700	-11.584000	21.799904	0.000934	20.871944
127.035324	-3.008400	3.857300	-11.603000	21.805107	0.000933	20.861505
128.037547	-2.993000	3.858500	-11.547000	21.810189	0.000934	20.878444
129.035689	-2.980800	3.857800	-11.497000	21.814427	0.000933	20.875573
130.036683	-2.982400	3.857900	-11.504000	21.813247	0.000936	20.883875
131.037685	-3.011600	3.857600	-11.616000	21.836253	0.000934	20.875607
132.036686	-2.993800	3.857800	-11.547000	21.844986	0.000936	20.889564
133.037685	-3.003300	3.858200	-11.586000	21.851016	0.000935	20.882323
134.036732	-3.005400	3.856800	-11.590000	21.837992	0.000935	20.880668
135.036742	-2.978400	3.857500	-11.488000	21.884468	0.000937	20.875978
136.036531	-2.983100	3.857400	-11.505000	21.834831	0.000937	20.863280
137.038738	-2.989400	3.856900	-11.529000	21.865787	0.000935	20.876245
138.039971	-2.980200	3.857600	-11.495000	21.877544	0.000935	20.902710
139.038333	-3.002000	3.855600	-11.574000	21.901866	0.000937	20.882012
140.038540	-3.009800	3.854900	-11.602000	21.901470	0.000937	20.869763
141.039055	-2.998500	3.856700	-11.563000	21.898662	0.000937	20.868849
142.043055	-2.994000	3.854200	-11.537000	21.933345	0.000938	20.899770
143.041053	-3.003200	3.855600	-11.577000	21.940054	0.000936	20.868556
144.045053	-2.967600	3.856200	-11.443000	21.912184	0.000938	20.897555
145.041597	-2.980700	3.855200	-11.491000	21.942982	0.000939	20.887132
146.046597	-2.985000	3.856300	-11.510000	21.932027	0.000938	20.868108
147.043597	-2.994800	3.855600	-11.545000	21.947590	0.000936	20.895537
148.045027	-2.992600	3.855500	-11.537000	21.963479	0.000940	20.898641
149.043602	-2.987200	3.857500	-11.521000	21.970533	0.000939	20.881521
150.044601	-2.994600	3.854800	-11.542000	21.966347	0.000939	20.891555
151.043817	-2.999300	3.853600	-11.557000	21.969568	0.000941	20.907579
152.045116	-3.000000	3.853900	-11.561000	21.969241	0.000940	20.879279
153.047817	-3.005500	3.853300	-11.579000	21.964616	0.000938	20.883184
154.046131	-3.010900	3.852700	-11.598000	22.008977	0.000941	20.914786
155.054131	-3.001600	3.852900	-11.563000	21.981039	0.000938	20.893460
156.047766	-2.996600	3.853400	-11.546000	21.998531	0.000940	20.908123
157.046767	-2.997100	3.852200	-11.544000	22.015375	0.000941	20.906493
158.046839	-2.999700	3.851600	-11.552000	22.033486	0.000939	20.881477
159.047831	-2.993200	3.851200	-11.526000	22.028646	0.000941	20.899390
160.047734	-2.994800	3.851700	-11.534000	22.017700	0.000943	20.928259
161.048926	-2.976200	3.852600	-11.466000	22.043372	0.000941	20.897537
162.047742	-2.991100	3.852500	-11.522000	22.067192	0.000941	20.904312
163.051405	-3.026200	3.850200	-11.650000	22.072066	0.000941	20.911562
164.049498	-3.003000	3.853000	-11.570000	22.048040	0.000943	20.905528
165.050016	-2.993700	3.852700	-11.533000	22.050468	0.000941	20.914596
166.053186	-2.999100	3.850100	-11.546000	22.055824	0.000942	20.920432
167.050563	-2.983400	3.850600	-11.487000	22.050244	0.000943	20.899201
168.049975	-2.992300	3.850600	-11.521000	22.070567	0.000946	20.910536
169.050930	-2.991400	3.850400	-11.517000	22.075614	0.000944	20.919854
170.051990	-3.000600	3.849100	-11.549000	22.087428	0.000945	20.910346
171.050424	-3.016700	3.849200	-11.611000	22.107949	0.000946	20.921406
172.055567	-3.012300	3.848700	-11.590000	22.113417	0.000946	20.913131
173.058148	-3.026600	3.847000	-11.641000	22.120315	0.000945	20.925251
174.056242	-3.016500	3.847800	-11.604000	22.115467	0.000946	20.910916
175.055295	-3.017400	3.847900	-11.610000	22.135091	0.000946	20.902589
176.055681	-3.004800	3.848800	-11.563000	22.140258	0.000946	20.924354
177.055902	-2.994800	3.849700	-11.528000	22.161062	0.000948	20.910571
178.060173	-3.010400	3.847900	-11.583000	22.160321	0.000947	20.917890
179.057378	-3.012900	3.847300	-11.590000	22.142979	0.000949	20.906218
180.056375	-3.014000	3.847000	-11.593000	22.176811	0.000950	20.915907
181.060047	-3.010700	3.846800	-11.579000	22.162147	0.000947	20.938681
182.059215	-3.005000	3.846900	-11.559000	22.178809	0.000949	20.929760
183.055206	-3.017300	3.847300	-11.607000	22.188168	0.000949	20.923484
184.056535	-3.027500	3.846100	-11.643000	22.177250	0.000949	20.943371
185.058964	-2.979000	3.846900	-11.459000	22.176854	0.000947	20.957197
186.056663	-3.010800	3.846700	-11.581000	22.195746	0.000950	20.933440
187.057699	-3.001300	3.847000	-11.543000	22.216153	0.000951	20.933484
188.060663	-3.005200	3.846500	-11.559000	22.234011	0.000951	20.947095
189.056813	-2.994100	3.846800	-11.517000	22.222042	0.000948	20.927053
190.057027	-2.983000	3.846800	-11.474000	22.229542	0.000953	20.944517
191.060040	-3.016000	3.845500	-11.595000	22.224643	0.000950	20.945776
192.060098	-2.979000	3.846800	-11.458000	22.240640	0.000951	20.948517
193.056231	-3.018000	3.844000	-11.601000	22.234648	0.000951	20.944888
194.060233	-3.005000	3.845400	-11.554000	22.219933	0.000955	20.942483
195.059835	-3.005400	3.844700	-11.553000	22.228664	0.000954	20.954069
196.057903	-2.989800	3.845800	-11.497000	22.220725	0.000953	20.948491
197.057869	-2.980500	3.844500	-11.458000	22.261976	0.000956	20.934320
198.057765	-3.002200	3.843700	-11.537000	22.258601	0.000956	20.943742
199.061133	-3.005700	3.843600	-11.552000	22.251420	0.000954	20.948879
200.058442	-2.993700	3.844700	-11.508000	22.286962	0.000955	20.930416
201.062785	-3.003700	3.842900	-11.541000	22.305585	0.000957	20.942423
202.059150	-2.988200	3.844900	-11.488000	22.286678	0.000957	20.952887
203.059519	-3.008600	3.842300	-11.559000	22.328469	0.000957	20.935941
204.061541	-2.991300	3.843800	-11.497000	22.342072	0.000960	20.955724
205.059920	-3.017600	3.844500	-11.600000	22.351224	0.000959	20.956827
206.060036	-3.011200	3.844200	-11.575000	22.355064	0.000959	20.954034
207.059578	-3.012800	3.842700	-11.576000	22.345353	0.000958	20.937674
208.059577	-3.013400	3.844400	-11.583000	22.334918	0.000959	20.971791
209.059564	-2.974300	3.842400	-11.427000	22.366032	0.000959	20.963594
210.065562	-3.001000	3.842100	-11.529000	22.352980	0.000960	20.969016
211.061364	-2.982500	3.843700	-11.462000	22.396646	0.000959	20.981445
212.060329	-3.007600	3.841400	-11.552000	22.397275	0.000960	20.971645
213.061329	-2.993600	3.842900	-11.504000	22.404110	0.000961	20.959526
214.064462	-3.020800	3.841800	-11.604000	22.408931	0.000959	20.958189
215.064159	-3.011700	3.840500	-11.566000	22.409034	0.000960	20.978678
216.061484	-3.001700	3.841700	-11.531000	22.423394	0.000961	20.962715
217.064474	-2.990900	3.842200	-11.490000	22.410954	0.000962	20.971119
218.061876	-2.993600	3.840500	-11.496000	22.420708	0.000963	20.969981
219.061928	-2.986800	3.840400	-11.470000	22.439277	0.000965	20.964396
220.065929	-2.990900	3.840000	-11.484000	22.467134	0.000964	20.969059
221.064929	-2.994700	3.839700	-11.498000	22.447197	0.000964	20.979437
222.064761	-2.996000	3.840500	-11.505000	22.461668	0.000965	20.964059
223.065762	-2.968000	3.841000	-11.399000	22.480167	0.000965	20.982109
224.062227	-3.001700	3.838600	-11.521000	22.470612	0.000966	20.982971
225.063283	-3.002000	3.839600	-11.525000	22.487923	0.000966	21.003623
226.064671	-2.998700	3.838300	-11.509000	22.485289	0.000968	20.966852
227.067933	-3.005000	3.837700	-11.531000	22.478609	0.000965	20.966800
228.064931	-2.990800	3.838700	-11.479000	22.515013	0.000969	20.961060
229.065200	-2.969200	3.840300	-11.402000	22.493682	0.000967	20.980471
230.065907	-3.004400	3.838900	-11.533000	22.493286	0.000968	20.984815
231.064291	-2.971300	3.837900	-11.402000	22.474950	0.000967	20.945122
232.066291	-2.987200	3.837400	-11.463000	22.503358	0.000970	20.977834
233.070109	-3.011000	3.836600	-11.551000	22.486288	0.000968	20.973067
234.066380	-2.999800	3.836800	-11.509000	22.493889	0.000969	20.969774
235.065619	-2.989900	3.836900	-11.470000	22.505647	0.000971	20.970171
236.065716	-2.997100	3.835600	-11.496000	22.493045	0.000970	20.979833
237.065853	-2.995700	3.836500	-11.491000	22.496712	0.000972	20.947949
238.065865	-3.022400	3.836700	-11.594000	22.516528	0.000970	20.960681
239.066898	-2.995000	3.836800	-11.490000	22.511355	0.000970	20.939855
240.068867	-2.987700	3.836900	-11.462000	22.525532	0.000972	20.936036
241.066296	-3.005300	3.836700	-11.530000	22.529405	0.000973	20.942760
242.066697	-2.995400	3.835700	-11.489000	22.525954	0.000974	20.964430
243.067133	-3.008500	3.835700	-11.538000	22.535767	0.000974	20.957663
244.067075	-3.003600	3.835600	-11.519000	22.529690	0.000974	20.964378
245.069015	-3.011400	3.834100	-11.545000	22.548308	0.000975	20.956948
246.068225	-3.000500	3.835400	-11.507000	22.541706	0.000975	20.951759
247.070449	-2.998900	3.834600	-11.499000	22.574631	0.000976	20.947751
248.068637	-3.007300	3.834900	-11.532000	22.560643	0.000976	20.950337
249.073072	-3.010900	3.834300	-11.544000	22.570929	0.000977	20.944518
250.073060	-2.981400	3.835800	-11.435000	22.536343	0.000977	20.939277
251.071062	-3.022600	3.831400	-11.580000	22.560273	0.000977	20.947122
252.074101	-3.003200	3.832000	-11.507000	22.552543	0.000980	20.944122
253.074405	-2.987400	3.833400	-11.451000	22.577239	0.000980	20.966482
254.071347	-2.986400	3.833200	-11.447000	22.559963	0.000980	20.931166
255.071407	-3.005900	3.833400	-11.521000	22.566324	0.000980	20.934218
256.075667	-3.002200	3.831500	-11.502000	22.576921	0.000979	20.929184
257.072351	-3.003600	3.833200	-11.512000	22.607460	0.000980	20.937010
258.073540	-3.000100	3.831700	-11.494000	22.614690	0.000981	20.948044
259.076206	-3.003300	3.831600	-11.506000	22.616523	0.000980	20.945613
260.072575	-3.015800	3.832300	-11.556000	22.602640	0.000982	20.931235
261.073243	-3.002000	3.831500	-11.501000	22.633695	0.000983	20.943846
262.077413	-3.002400	3.831500	-11.502000	22.620362	0.000982	20.915797
263.075836	-2.996700	3.832100	-11.483000	22.597372	0.000982	20.928805
264.074897	-3.010100	3.830100	-11.527000	22.624752	0.000986	20.930149
265.078338	-2.994200	3.829400	-11.465000	22.632326	0.000984	20.935364
266.077302	-2.989700	3.830400	-11.451000	22.644790	0.000983	20.918452
267.077302	-3.009900	3.829500	-11.525000	22.676214	0.000986	20.937597
268.079477	-3.011500	3.830900	-11.535000	22.654593	0.000986	20.926374
269.078475	-3.000300	3.830500	-11.491000	22.698247	0.000985	20.913677
270.077137	-3.020700	3.827100	-11.560000	22.691147	0.000987	20.929322
271.079139	-3.014900	3.829400	-11.545000	22.688117	0.000988	20.928659
272.081173	-3.002100	3.828800	-11.494000	22.692377	0.000986	20.923443
