LabVIEW Measurement	
Writer_Version	2
Reader_Version	2
Separator	Tab
Decimal_Separator	.
Multi_Headings	No
X_Columns	One
Time_Pref	Absolute
Operator	admin
Description	Clolumns are: time, Current, Voltage, Power, Battery Temp, and Chamber Temp
Date	2024/08/16
Time	13:06:06.104549407958984375
***End_of_Header***	
	
Channels	6						
Samples	1	1	1	1	1	1	
Date	2024/09/12	2024/09/12	2024/09/12	2024/09/12	2024/09/12	2024/09/12	
Time	23:03:02.736377716064453125	23:03:02.74301910400390625	23:03:02.7480134963989257813	23:03:02.7221522331237792969	23:03:02.7221522331237792969	23:03:02.7221522331237792969	
X_Dimension	Time	Time	Time	Time	Time	Time	
X0	0.0000000000000000E+0	0.0000000000000000E+0	0.0000000000000000E+0	0.0000000000000000E+0	0.0000000000000000E+0	0.0000000000000000E+0	
Delta_X	1.000000	1.000000	1.000000	1.000000	1.000000	1.000000	
***End_of_Header***							
X_Value	Untitled	Untitled 1	Untitled 2	Untitled 3	Untitled 4	Untitled 5	Comment
0.000000	0.023671	4.093300	0.096795	21.057257	0.000922	20.865726
1.000023	-2.998400	3.914600	-11.737000	21.061625	0.000922	20.857767
2.000405	-3.013300	3.908200	-11.776000	21.065392	0.000921	20.855846
3.005599	-2.981500	3.904700	-11.640000	21.069806	0.000920	20.863579
4.003536	-2.999900	3.899700	-11.697000	21.039022	0.000920	20.863134
5.005864	-3.002500	3.897300	-11.701000	21.071853	0.000918	20.853300
6.005622	-3.000200	3.893400	-11.680000	21.056261	0.000917	20.844817
7.002008	-2.987500	3.891000	-11.623000	21.054214	0.000918	20.846562
8.008576	-2.982000	3.889700	-11.598000	21.064093	0.000918	20.872089
9.004673	-3.010800	3.886300	-11.700000	21.073501	0.000919	20.846887
10.009565	-3.007100	3.884600	-11.679000	21.078042	0.000915	20.839102
11.007876	-3.018600	3.881100	-11.715000	21.090241	0.000916	20.831864
12.057346	-2.993800	3.882200	-11.622000	21.076445	0.000912	20.857892
13.031550	-2.985600	3.880200	-11.583000	21.081734	0.000915	20.864130
14.027730	-3.006800	3.879100	-11.663000	21.093510	0.000914	20.838452
15.039711	-3.002000	3.876200	-11.635000	21.105882	0.000910	20.865052
16.028751	-2.999400	3.876700	-11.626000	21.102566	0.000912	20.857467
17.031208	-2.996900	3.874700	-11.611000	21.109352	0.000912	20.846237
18.031103	-3.007200	3.873800	-11.646000	21.117284	0.000910	20.826672
19.042842	-3.003800	3.873100	-11.633000	21.137265	0.000909	20.858037
20.026812	-2.993200	3.872100	-11.588000	21.119128	0.000909	20.835154
21.030171	-3.006200	3.872000	-11.639000	21.142156	0.000909	20.840645
22.029439	-3.002200	3.870200	-11.618000	21.121598	0.000909	20.855642
23.028008	-3.013000	3.868500	-11.654000	21.151285	0.000907	20.843138
24.038103	-3.000300	3.867600	-11.603000	21.144723	0.000906	20.835627
25.054445	-3.002300	3.868600	-11.614000	21.140432	0.000907	20.824223
26.039669	-3.003200	3.867300	-11.613000	21.141954	0.000904	20.844236
27.015868	-3.003500	3.866400	-11.611000	21.156350	0.000905	20.844886
28.057148	-2.993400	3.865800	-11.570000	21.150412	0.000904	20.846058
29.033568	-3.009600	3.867600	-11.638000	21.174437	0.000904	20.850176
30.047261	-2.983300	3.864600	-11.528000	21.183093	0.000905	20.844610
31.037741	-3.002400	3.863900	-11.599000	21.165456	0.000906	20.834080
32.037775	-2.966400	3.863900	-11.460000	21.172864	0.000905	20.836275
33.033185	-3.005000	3.863400	-11.609000	21.197911	0.000903	20.845683
34.040698	-2.985900	3.864400	-11.537000	21.209262	0.000904	20.831434
35.056438	-3.002700	3.861700	-11.595000	21.209036	0.000905	20.821252
36.043029	-2.999700	3.862000	-11.585000	21.222780	0.000904	20.835474
37.042885	-2.991300	3.860800	-11.548000	21.221883	0.000906	20.856387
38.033244	-2.997600	3.859900	-11.569000	21.232433	0.000903	20.819527
39.042403	-3.007500	3.859000	-11.605000	21.235526	0.000902	20.847276
40.019397	-3.005700	3.858600	-11.596000	21.239543	0.000902	20.852717
41.039906	-2.989500	3.858600	-11.534000	21.257330	0.000903	20.841114
42.053117	-3.005800	3.857300	-11.593000	21.273644	0.000903	20.833252
43.034473	-2.995500	3.858000	-11.555000	21.278408	0.000905	20.825691
44.041115	-2.987200	3.857800	-11.523000	21.283245	0.000902	20.840487
45.050711	-2.995300	3.857600	-11.552000	21.297189	0.000905	20.838789
46.071054	-2.988600	3.856700	-11.526000	21.289206	0.000903	20.831277
47.060574	-2.987600	3.857100	-11.523000	21.309834	0.000902	20.830104
48.054972	-2.979900	3.856300	-11.490000	21.312204	0.000904	20.827259
49.058652	-2.995600	3.856600	-11.551000	21.307614	0.000900	20.844477
50.061649	-3.000000	3.856100	-11.567000	21.313848	0.000904	20.839808
51.069923	-2.998200	3.855600	-11.559000	21.342758	0.000903	20.825584
52.055000	-3.012000	3.853800	-11.606000	21.344128	0.000902	20.835964
53.056667	-3.018100	3.853300	-11.629000	21.343556	0.000902	20.844875
54.062002	-2.993600	3.854600	-11.537000	21.352460	0.000902	20.823911
55.071983	-2.978500	3.854700	-11.480000	21.366727	0.000901	20.830599
56.063238	-3.003400	3.852800	-11.570000	21.368050	0.000901	20.816275
57.047991	-2.995800	3.853600	-11.544000	21.378474	0.000903	20.828127
58.043599	-3.016500	3.853300	-11.622000	21.387727	0.000902	20.823160
59.048061	-2.977700	3.853100	-11.473000	21.386280	0.000899	20.811281
60.063422	-2.987700	3.852500	-11.508000	21.424366	0.000900	20.827576
61.055870	-3.012000	3.850400	-11.596000	21.403291	0.000900	20.841103
62.051264	-2.990700	3.852100	-11.520000	21.420950	0.000902	20.843124
63.069705	-2.989400	3.853000	-11.517000	21.433843	0.000901	20.823307
64.071993	-2.992000	3.850200	-11.517000	21.423740	0.000899	20.824579
65.074130	-3.001900	3.850500	-11.557000	21.425886	0.000900	20.822458
66.066995	-3.016200	3.849400	-11.610000	21.450677	0.000901	20.807909
67.052635	-2.972300	3.849600	-11.441000	21.452920	0.000899	20.817266
68.061059	-3.007100	3.849900	-11.575000	21.446437	0.000899	20.815994
69.071115	-2.992300	3.849500	-11.518000	21.433963	0.000899	20.814893
70.066886	-3.002800	3.849800	-11.559000	21.460975	0.000901	20.831962
71.061198	-3.015800	3.848400	-11.603000	21.478856	0.000902	20.832785
72.051022	-3.004300	3.846400	-11.555000	21.473670	0.000901	20.812423
73.050158	-2.982400	3.847100	-11.473000	21.482297	0.000903	20.827693
74.047219	-2.982700	3.847800	-11.475000	21.478008	0.000902	20.809651
75.056658	-2.987500	3.847600	-11.494000	21.500129	0.000902	20.816138
76.054381	-2.998200	3.847200	-11.534000	21.503595	0.000902	20.822451
77.052101	-2.997700	3.846400	-11.529000	21.518158	0.000902	20.800988
78.055970	-2.982000	3.846700	-11.470000	21.531900	0.000901	20.826592
79.054638	-3.000000	3.845700	-11.534000	21.541152	0.000900	20.798866
80.034883	-2.993700	3.844700	-11.508000	21.534394	0.000904	20.831458
81.032294	-2.986600	3.844800	-11.482000	21.553296	0.000902	20.821450
82.027942	-2.996000	3.845900	-11.520000	21.574195	0.000903	20.824818
83.035198	-3.018300	3.843400	-11.599000	21.571302	0.000901	20.818605
84.037958	-3.022800	3.845200	-11.621000	21.570129	0.000902	20.799887
85.046257	-2.989700	3.844400	-11.493000	21.574369	0.000902	20.809820
86.056464	-3.018200	3.842700	-11.597000	21.599931	0.000903	20.830183
87.058261	-3.019700	3.842400	-11.601000	21.591153	0.000903	20.812865
88.050451	-2.994200	3.843200	-11.506000	21.598632	0.000904	20.805176
89.032973	-2.996500	3.843500	-11.515000	21.607263	0.000904	20.810020
90.059015	-2.987000	3.843000	-11.478000	21.607686	0.000904	20.827986
91.067398	-3.006600	3.843300	-11.553000	21.595143	0.000903	20.807374
92.063270	-2.988600	3.843000	-11.483000	21.602823	0.000904	20.800362
93.052179	-2.979500	3.842700	-11.449000	21.629359	0.000904	20.826441
94.056294	-2.997100	3.841100	-11.511000	21.635595	0.000904	20.801862
95.054129	-2.989100	3.842700	-11.484000	21.636367	0.000904	20.805005
96.056663	-2.985400	3.842800	-11.472000	21.651777	0.000905	20.807625
97.077709	-3.005500	3.840400	-11.540000	21.656167	0.000905	20.802061
98.087262	-2.998100	3.839700	-11.509000	21.670731	0.000902	20.791980
99.077143	-2.998100	3.841500	-11.516000	21.691153	0.000904	20.800090
100.072025	-3.000300	3.839600	-11.519000	21.695566	0.000904	20.801661
101.071629	-2.995300	3.840200	-11.502000	21.700728	0.000904	20.795448
102.078695	-2.997900	3.838900	-11.507000	21.690804	0.000905	20.812068
103.078479	-2.996400	3.839800	-11.505000	21.690880	0.000906	20.808351
104.100254	-3.026300	3.838400	-11.615000	21.716739	0.000904	20.809101
105.071221	-3.004500	3.839400	-11.534000	21.703573	0.000905	20.785492
106.076709	-3.005100	3.838900	-11.535000	21.729930	0.000906	20.803810
107.077502	-2.995400	3.839100	-11.499000	21.717563	0.000907	20.810399
108.085163	-3.020800	3.837900	-11.592000	21.759604	0.000908	20.811223
109.073581	-2.999300	3.838000	-11.511000	21.747162	0.000909	20.781701
110.069147	-3.004100	3.838900	-11.532000	21.742575	0.000908	20.763834
111.084063	-2.994200	3.838100	-11.491000	21.761474	0.000907	20.787016
112.071573	-2.994700	3.838900	-11.495000	21.740628	0.000909	20.782274
113.070531	-2.998800	3.836800	-11.504000	21.746738	0.000909	20.791234
114.090406	-2.987300	3.837200	-11.461000	21.784938	0.000907	20.770197
115.081818	-3.006600	3.835800	-11.530000	21.773071	0.000910	20.782976
116.072344	-2.978800	3.836300	-11.427000	21.771824	0.000908	20.804961
117.043986	-2.993000	3.835100	-11.476000	21.812938	0.000909	20.793480
118.042698	-2.987400	3.836700	-11.460000	21.788430	0.000910	20.775114
119.044619	-3.003800	3.835200	-11.520000	21.798577	0.000910	20.791434
120.045161	-3.011600	3.835800	-11.551000	21.816107	0.000910	20.773892
121.043913	-3.021200	3.833900	-11.582000	21.820770	0.000912	20.788043
122.045220	-3.002400	3.834400	-11.511000	21.802121	0.000913	20.809205
123.043945	-2.998200	3.835100	-11.497000	21.813488	0.000913	20.789763
124.041559	-3.002900	3.834500	-11.514000	21.848770	0.000911	20.793782
125.041993	-3.009500	3.834200	-11.538000	21.853581	0.000910	20.801917
126.045867	-3.016100	3.834700	-11.564000	21.841016	0.000911	20.778435
127.046119	-2.977800	3.836200	-11.423000	21.844506	0.000914	20.792834
128.039476	-2.989400	3.833200	-11.458000	21.859514	0.000914	20.787467
129.043058	-2.992300	3.833500	-11.470000	21.883773	0.000913	20.783299
130.041386	-3.011100	3.832200	-11.539000	21.882826	0.000914	20.774764
131.045862	-2.996900	3.832300	-11.483000	21.893847	0.000914	20.799072
132.043635	-3.008600	3.834100	-11.534000	21.922992	0.000912	20.790314
133.042160	-3.029000	3.832800	-11.609000	21.905515	0.000914	20.787993
134.044114	-2.997400	3.832900	-11.488000	21.921296	0.000914	20.785297
135.042228	-3.002000	3.833100	-11.506000	21.975418	0.000914	20.783523
136.042199	-3.018000	3.831500	-11.562000	21.948445	0.000915	20.766954
137.043765	-3.008500	3.832100	-11.528000	21.956026	0.000916	20.797776
138.051109	-2.978900	3.832400	-11.416000	21.981702	0.000914	20.780330
139.045822	-2.984900	3.830500	-11.433000	21.968741	0.000916	20.808133
140.045887	-3.004000	3.829900	-11.503000	21.971659	0.000915	20.787346
141.075756	-3.008500	3.831000	-11.524000	22.006636	0.000918	20.791539
142.071556	-3.007800	3.829800	-11.517000	21.992674	0.000918	20.787520
143.062548	-2.996400	3.830100	-11.475000	21.994395	0.000916	20.812477
144.062250	-2.982900	3.831400	-11.428000	22.025509	0.000917	20.795734
145.094066	-3.006200	3.830300	-11.514000	22.026256	0.000918	20.796007
146.074599	-3.003600	3.828200	-11.497000	22.020276	0.000919	20.789073
147.085454	-3.017700	3.829100	-11.554000	22.036705	0.000921	20.773750
148.083473	-3.002900	3.829300	-11.498000	22.040045	0.000920	20.799380
149.085319	-3.011900	3.829100	-11.531000	22.025138	0.000920	20.799156
150.096338	-3.008900	3.828800	-11.519000	22.044608	0.000920	20.801577
151.092547	-3.007400	3.827500	-11.510000	22.047451	0.000921	20.782138
152.089468	-3.001300	3.829200	-11.490000	22.052934	0.000919	20.794740
153.099841	-3.013800	3.827000	-11.533000	22.084320	0.000923	20.789650
154.087546	-2.988700	3.829100	-11.443000	22.093244	0.000922	20.797636
155.089437	-3.002100	3.825800	-11.484000	22.115978	0.000922	20.797636
156.093565	-2.982900	3.827100	-11.415000	22.099501	0.000923	20.788252
157.081697	-2.993300	3.826100	-11.451000	22.093517	0.000923	20.791746
158.089488	-3.013400	3.824900	-11.525000	22.100075	0.000925	20.776500
159.107254	-3.009500	3.825700	-11.513000	22.085964	0.000923	20.810736
160.090145	-2.982900	3.827900	-11.416000	22.095290	0.000925	20.794942
161.097473	-2.997200	3.826400	-11.468000	22.098903	0.000925	20.810887
162.094262	-3.002600	3.825000	-11.484000	22.115903	0.000924	20.802777
163.106877	-2.978800	3.826200	-11.395000	22.139234	0.000924	20.785358
164.088314	-3.004500	3.824500	-11.489000	22.141677	0.000926	20.781639
165.087564	-2.989000	3.824900	-11.431000	22.170541	0.000926	20.802951
166.092257	-3.001300	3.825000	-11.478000	22.182281	0.000925	20.794317
167.101646	-3.019700	3.824300	-11.546000	22.181607	0.000924	20.791746
168.093640	-2.995300	3.824500	-11.454000	22.180635	0.000927	20.814480
169.099240	-2.977700	3.824800	-11.388000	22.197835	0.000926	20.788078
170.091986	-2.996100	3.825700	-11.461000	22.210396	0.000928	20.812035
171.087245	-3.022400	3.823700	-11.555000	22.228017	0.000929	20.802177
172.094684	-2.995600	3.824400	-11.455000	22.220242	0.000929	20.796288
173.086845	-3.003200	3.822600	-11.479000	22.213537	0.000931	20.781515
174.093049	-2.988100	3.822800	-11.421000	22.234124	0.000931	20.807817
175.090706	-2.996000	3.823800	-11.455000	22.246685	0.000930	20.817549
176.101329	-2.987400	3.822000	-11.416000	22.254212	0.000931	20.799955
177.071526	-3.011800	3.821500	-11.507000	22.264680	0.000933	20.800953
178.099620	-2.994800	3.821900	-11.445000	22.262386	0.000931	20.807666
179.114164	-2.985600	3.821700	-11.409000	22.256032	0.000933	20.810786
180.090470	-3.011300	3.821400	-11.506000	22.263534	0.000932	20.793642
181.093304	-3.017100	3.820300	-11.524000	22.272457	0.000931	20.801154
182.115067	-3.006500	3.821700	-11.488000	22.299147	0.000932	20.813180
183.103294	-3.002400	3.821200	-11.471000	22.297629	0.000933	20.811186
184.100810	-2.976900	3.822300	-11.378000	22.307821	0.000932	20.801951
185.100616	-3.006900	3.820300	-11.487000	22.282774	0.000933	20.818122
186.116308	-3.015100	3.821800	-11.522000	22.295660	0.000935	20.781239
187.111489	-3.026100	3.820200	-11.560000	22.331822	0.000935	20.796587
188.101653	-2.987400	3.820600	-11.413000	22.314103	0.000936	20.807767
189.100741	-2.989000	3.821400	-11.420000	22.336235	0.000934	20.812859
190.098116	-2.978800	3.820600	-11.379000	22.341071	0.000937	20.820072
191.101209	-2.998600	3.819000	-11.450000	22.341745	0.000934	20.804152
192.105084	-3.003000	3.818500	-11.466000	22.319365	0.000938	20.822045
193.115635	-2.994700	3.819800	-11.436000	22.334045	0.000936	20.826786
194.101496	-3.001300	3.818100	-11.459000	22.344886	0.000936	20.794495
195.108705	-2.991600	3.818900	-11.424000	22.366994	0.000937	20.806675
196.081257	-3.004000	3.817600	-11.467000	22.363480	0.000939	20.829235
197.081694	-2.978800	3.818300	-11.374000	22.354012	0.000937	20.836824
198.090938	-3.009500	3.817200	-11.486000	22.395207	0.000937	20.816910
199.090978	-3.011000	3.817200	-11.493000	22.353191	0.000940	20.809449
200.082858	-2.994700	3.817400	-11.431000	22.347436	0.000938	20.812696
201.089189	-3.040200	3.815200	-11.598000	22.373630	0.000940	20.806209
202.085835	-3.001400	3.816900	-11.456000	22.406502	0.000941	20.821108
203.087415	-2.995400	3.815800	-11.428000	22.388660	0.000939	20.816518
204.117411	-2.998600	3.815800	-11.441000	22.388887	0.000941	20.812952
205.089019	-2.994000	3.814900	-11.421000	22.398233	0.000941	20.821836
206.091901	-2.988300	3.815300	-11.400000	22.421061	0.000941	20.828102
207.090204	-2.973900	3.817100	-11.351000	22.417525	0.000942	20.809862
208.095307	-2.989100	3.816200	-11.406000	22.420393	0.000941	20.816527
209.106434	-2.999500	3.814800	-11.440000	22.423809	0.000944	20.816154
210.114233	-3.015900	3.813300	-11.499000	22.459993	0.000944	20.813036
211.106843	-3.000100	3.813200	-11.439000	22.471060	0.000946	20.818429
212.107977	-3.001300	3.814900	-11.448000	22.434430	0.000943	20.803083
213.119213	-3.007100	3.814200	-11.469000	22.470293	0.000944	20.812919
214.129008	-2.987300	3.815200	-11.395000	22.480808	0.000944	20.823450
215.114309	-3.005400	3.813100	-11.459000	22.479940	0.000946	20.832063
216.072586	-2.997500	3.814000	-11.430000	22.484102	0.000946	20.831964
217.089161	-2.976900	3.814200	-11.352000	22.509221	0.000947	20.799274
218.107897	-2.979400	3.814300	-11.363000	22.511915	0.000949	20.813826
219.084977	-2.987000	3.813400	-11.389000	22.524799	0.000949	20.796384
220.092479	-2.996000	3.812700	-11.422000	22.499682	0.000951	20.815325
221.072063	-2.974800	3.813800	-11.344000	22.504468	0.000948	20.788824
222.072954	-3.000800	3.812100	-11.437000	22.540925	0.000952	20.800680
223.072631	-3.005500	3.811200	-11.453000	22.522835	0.000952	20.815753
224.072082	-3.006100	3.811100	-11.455000	22.546907	0.000951	20.833224
225.070889	-3.002700	3.810100	-11.440000	22.565146	0.000952	20.809765
226.075026	-3.001500	3.811000	-11.436000	22.569808	0.000955	20.822969
227.127967	-3.008300	3.811200	-11.464000	22.605088	0.000954	20.815157
228.104829	-3.010100	3.809800	-11.466000	22.583065	0.000955	20.819652
229.103992	-3.003800	3.810100	-11.444000	22.599186	0.000954	20.822047
230.116296	-2.975700	3.811400	-11.339000	22.605514	0.000955	20.816057
231.132340	-2.994100	3.808500	-11.402000	22.646129	0.000956	20.811218
232.118868	-3.007800	3.809000	-11.455000	22.646703	0.000955	20.839768
233.121534	-3.012000	3.809600	-11.474000	22.625374	0.000956	20.814612
234.111393	-3.025900	3.808400	-11.523000	22.646825	0.000957	20.811442
235.091266	-3.003600	3.809300	-11.441000	22.620987	0.000957	20.845305
236.106271	-2.997400	3.808100	-11.413000	22.623131	0.000956	20.814262
237.105073	-3.002200	3.808100	-11.431000	22.619344	0.000960	20.816633
238.122304	-3.005800	3.806600	-11.440000	22.628688	0.000958	20.835474
239.120278	-3.001300	3.807900	-11.426000	22.658410	0.000962	20.834899
240.106390	-2.989500	3.808600	-11.384000	22.641943	0.000960	20.847802
241.111681	-3.008600	3.807700	-11.454000	22.658311	0.000962	20.821049
242.112827	-2.997700	3.806600	-11.410000	22.676125	0.000959	20.816608
243.121918	-3.016000	3.805500	-11.476000	22.657188	0.000961	20.825141
244.113328	-2.986500	3.807200	-11.369000	22.656068	0.000962	20.820225
245.109200	-2.993100	3.806200	-11.391000	22.663667	0.000962	20.822621
246.112722	-2.987100	3.806500	-11.368000	22.640520	0.000962	20.829783
247.124716	-2.987400	3.806200	-11.370000	22.634840	0.000964	20.826464
248.124115	-3.021500	3.804700	-11.495000	22.657587	0.000964	20.837394
249.118450	-2.996100	3.805700	-11.401000	22.663892	0.000966	20.843234
250.078684	-2.972200	3.805500	-11.310000	22.661250	0.000965	20.849597
251.079430	-2.992600	3.804800	-11.385000	22.682503	0.000965	20.846702
252.100125	-3.001900	3.804200	-11.419000	22.695133	0.000965	20.820474
253.100924	-2.992200	3.804400	-11.383000	22.718005	0.000966	20.833427
254.098156	-3.007400	3.804300	-11.439000	22.706892	0.000967	20.832253
255.105409	-2.990000	3.803700	-11.371000	22.703978	0.000968	20.840238
256.101893	-3.005600	3.803000	-11.429000	22.706493	0.000968	20.831379
257.096334	-3.012900	3.802200	-11.454000	22.735668	0.000968	20.859179
258.096889	-3.000700	3.802600	-11.410000	22.729638	0.000969	20.853614
259.102551	-2.982800	3.804800	-11.347000	22.745707	0.000970	20.838891
260.081379	-3.003800	3.803000	-11.422000	22.754153	0.000970	20.829333
261.092657	-2.988900	3.803100	-11.366000	22.766210	0.000973	20.849471
262.124193	-2.986000	3.803800	-11.356000	22.784073	0.000972	20.839864
263.121999	-3.029700	3.800100	-11.511000	22.794612	0.000973	20.835249
264.124135	-2.994600	3.801600	-11.382000	22.827095	0.000973	20.846452
265.119733	-2.984300	3.801600	-11.343000	22.829610	0.000973	20.839963
266.119781	-2.982000	3.799600	-11.329000	22.832450	0.000974	20.851342
267.130606	-3.020100	3.800200	-11.475000	22.829486	0.000975	20.845054
268.120722	-2.999700	3.800300	-11.399000	22.856215	0.000975	20.836269
269.105982	-3.001400	3.799200	-11.401000	22.845951	0.000975	20.839263
270.102970	-3.012900	3.798800	-11.444000	22.854073	0.000976	20.847874
271.096248	-3.010600	3.799400	-11.437000	22.875521	0.000977	20.851342
272.083971	-2.988400	3.801000	-11.358000	22.881101	0.000976	20.851717
