LabVIEW Measurement	
Writer_Version	2
Reader_Version	2
Separator	Tab
Decimal_Separator	.
Multi_Headings	No
X_Columns	One
Time_Pref	Absolute
Operator	admin
Description	Clolumns are: time, Current, Voltage, Power, Battery Temp, and Chamber Temp
Date	2024/08/16
Time	13:06:06.104549407958984375
***End_of_Header***	
	
Channels	6						
Samples	1	1	1	1	1	1	
Date	2024/08/26	2024/08/26	2024/08/26	2024/08/26	2024/08/26	2024/08/26	
Time	23:55:35.8069758415222167969	23:55:35.8219761848449707031	23:55:35.8358473777770996094	23:55:35.7876901626586914063	23:55:35.7876901626586914063	23:55:35.7876901626586914063	
X_Dimension	Time	Time	Time	Time	Time	Time	
X0	0.0000000000000000E+0	0.0000000000000000E+0	0.0000000000000000E+0	0.0000000000000000E+0	0.0000000000000000E+0	0.0000000000000000E+0	
Delta_X	1.000000	1.000000	1.000000	1.000000	1.000000	1.000000	
***End_of_Header***							
X_Value	Untitled	Untitled 1	Untitled 2	Untitled 3	Untitled 4	Untitled 5	Comment
0.000000	0.030822	4.103600	0.126460	21.048007	0.000965	20.873543
0.996228	-2.990000	3.945100	-11.794000	21.023399	0.000965	20.866949
1.999848	-3.002300	3.935300	-11.815000	21.053753	0.000965	20.880712
3.000816	-2.996100	3.931900	-11.779000	21.041301	0.000964	20.877741
4.002440	-2.992200	3.928600	-11.754000	21.029008	0.000965	20.870662
5.000139	-3.018500	3.924400	-11.845000	21.039216	0.000960	20.872811
5.997962	-3.012100	3.920700	-11.808000	21.038268	0.000961	20.882294
7.001510	-2.996200	3.918900	-11.741000	21.049551	0.000960	20.876510
8.003949	-2.983300	3.918300	-11.688000	21.040671	0.000960	20.868577
8.997713	-2.993100	3.915500	-11.719000	21.048017	0.000958	20.875923
9.996990	-3.003000	3.913400	-11.751000	21.078482	0.000958	20.895015
10.997929	-3.008400	3.911000	-11.765000	21.050217	0.000958	20.882391
11.998705	-3.013300	3.908900	-11.778000	21.066095	0.000958	20.886893
12.999774	-3.029800	3.909100	-11.843000	21.055149	0.000956	20.863618
14.002533	-3.001800	3.906800	-11.727000	21.067354	0.000954	20.866343
14.998861	-3.027900	3.904600	-11.823000	21.098116	0.000955	20.885257
15.998182	-2.997700	3.904700	-11.702000	21.088035	0.000954	20.877070
16.998904	-3.009800	3.903800	-11.748000	21.072525	0.000952	20.896643
17.998241	-3.019800	3.902400	-11.783000	21.089421	0.000953	20.896947
18.997938	-2.988700	3.902800	-11.662000	21.091223	0.000950	20.866983
20.002184	-3.021100	3.899700	-11.780000	21.102473	0.000952	20.894355
21.004100	-3.005500	3.901400	-11.725000	21.090882	0.000952	20.888926
22.002494	-2.970800	3.899300	-11.583000	21.105906	0.000950	20.886411
23.005071	-2.989000	3.901000	-11.659000	21.119034	0.000951	20.883421
24.002467	-3.001700	3.897400	-11.698000	21.111280	0.000951	20.886096
25.000700	-2.983800	3.896300	-11.625000	21.135759	0.000949	20.892563
26.002730	-2.996700	3.896100	-11.673000	21.133837	0.000950	20.892064
26.998181	-3.001700	3.896200	-11.694000	21.141953	0.000950	20.897337
28.000366	-2.973200	3.895200	-11.581000	21.148419	0.000948	20.895270
29.002888	-2.975400	3.896100	-11.592000	21.156763	0.000948	20.912150
30.001444	-2.983400	3.893300	-11.614000	21.159177	0.000949	20.910771
31.001751	-2.984500	3.893400	-11.619000	21.165592	0.000946	20.879733
32.003095	-2.995700	3.894500	-11.666000	21.163602	0.000945	20.884380
33.004163	-3.019400	3.891600	-11.749000	21.161619	0.000945	20.905154
34.006248	-3.002600	3.890200	-11.679000	21.178310	0.000946	20.884394
35.006982	-3.003500	3.890200	-11.683000	21.191090	0.000945	20.895755
36.007151	-2.983900	3.890300	-11.608000	21.184979	0.000945	20.903865
37.006042	-2.997400	3.890300	-11.660000	21.196235	0.000943	20.904694
38.004425	-3.006100	3.888800	-11.689000	21.209438	0.000943	20.906522
39.007879	-2.994900	3.888900	-11.647000	21.200338	0.000943	20.886041
40.005805	-2.992700	3.886700	-11.631000	21.221465	0.000943	20.909544
41.006160	-2.992100	3.888800	-11.636000	21.225492	0.000944	20.892237
42.009095	-2.978800	3.887300	-11.579000	21.237721	0.000942	20.909211
43.014644	-2.995300	3.886800	-11.641000	21.246158	0.000943	20.895367
44.007107	-2.998700	3.886100	-11.652000	21.254375	0.000942	20.930610
45.012874	-3.009300	3.886800	-11.695000	21.263431	0.000941	20.948677
46.010342	-2.997300	3.886900	-11.650000	21.256846	0.000941	20.922652
47.008424	-2.999100	3.885400	-11.652000	21.262414	0.000940	20.909732
48.009055	-3.006900	3.885100	-11.681000	21.283496	0.000940	20.917545
49.010854	-3.003000	3.885700	-11.667000	21.280906	0.000941	20.908791
50.009855	-2.992700	3.884500	-11.623000	21.295656	0.000939	20.917383
51.011725	-2.989400	3.884900	-11.613000	21.297357	0.000939	20.925247
52.009983	-3.014700	3.882300	-11.703000	21.309484	0.000940	20.937378
53.012068	-2.987800	3.884600	-11.605000	21.316897	0.000939	20.933889
54.011796	-2.991200	3.882400	-11.612000	21.324107	0.000939	20.932094
55.010595	-3.010500	3.883900	-11.691000	21.323344	0.000939	20.930856
56.009986	-2.993200	3.882800	-11.621000	21.330833	0.000940	20.945459
57.013381	-2.977700	3.883400	-11.563000	21.339396	0.000938	20.915149
58.014454	-2.991200	3.880300	-11.605000	21.362441	0.000938	20.941996
59.012086	-3.011600	3.879900	-11.683000	21.358285	0.000938	20.908443
60.011023	-3.007300	3.879300	-11.665000	21.375574	0.000937	20.915309
61.017231	-2.994800	3.881000	-11.622000	21.347164	0.000938	20.928135
62.018222	-2.983100	3.881400	-11.578000	21.381496	0.000939	20.929767
63.015854	-2.991300	3.881500	-11.610000	21.361389	0.000939	20.913445
64.018909	-2.988100	3.878700	-11.589000	21.385168	0.000938	20.917321
65.016489	-3.016800	3.878600	-11.700000	21.402261	0.000938	20.932999
66.015869	-3.006600	3.877200	-11.656000	21.409825	0.000938	20.925869
67.017188	-3.003200	3.877900	-11.645000	21.408259	0.000936	20.932362
68.017758	-2.977600	3.878600	-11.548000	21.390869	0.000936	20.950048
69.016736	-3.003300	3.876500	-11.640000	21.426495	0.000936	20.944917
70.017212	-2.976600	3.877900	-11.541000	21.435405	0.000935	20.932496
71.016131	-3.002900	3.877700	-11.643000	21.426882	0.000937	20.941511
72.019379	-2.992400	3.877300	-11.601000	21.436733	0.000935	20.944728
73.015757	-3.001800	3.876700	-11.636000	21.433973	0.000937	20.957138
74.021335	-2.989100	3.877900	-11.591000	21.457294	0.000937	20.931638
75.018450	-2.997300	3.876900	-11.619000	21.437247	0.000936	20.943346
76.015245	-3.007900	3.876100	-11.657000	21.472745	0.000936	20.935717
77.017591	-3.002700	3.876300	-11.639000	21.473819	0.000935	20.945800
78.020166	-3.006900	3.874300	-11.649000	21.476543	0.000936	20.940465
79.017663	-2.979100	3.875500	-11.545000	21.475053	0.000935	20.960309
80.017930	-2.996000	3.877000	-11.613000	21.482819	0.000935	20.939633
81.019270	-2.996800	3.873400	-11.607000	21.491848	0.000935	20.944399
82.017032	-3.018600	3.873700	-11.691000	21.528013	0.000936	20.950241
83.020112	-2.996100	3.874200	-11.606000	21.514203	0.000936	20.935475
84.018834	-3.009200	3.874700	-11.658000	21.492380	0.000935	20.952991
85.019275	-2.994400	3.873500	-11.598000	21.528672	0.000938	20.958011
86.019629	-3.020400	3.871900	-11.693000	21.538232	0.000933	20.955250
87.019104	-3.009500	3.871900	-11.650000	21.529949	0.000935	20.955496
88.023035	-3.000900	3.873300	-11.622000	21.544052	0.000935	20.976717
89.019362	-3.010100	3.871900	-11.654000	21.549475	0.000937	20.971713
90.018519	-2.978900	3.873700	-11.538000	21.571441	0.000935	20.970934
91.017523	-2.973000	3.875300	-11.520000	21.562547	0.000935	20.948287
92.020461	-3.046200	3.870500	-11.788000	21.556658	0.000936	20.952825
93.017509	-3.000100	3.870900	-11.613000	21.586796	0.000935	20.950267
94.017626	-2.992800	3.873000	-11.590000	21.587642	0.000935	20.954432
95.018818	-3.002700	3.871500	-11.623000	21.579146	0.000935	20.974850
96.019919	-3.001200	3.871600	-11.618000	21.585458	0.000935	20.967417
97.019787	-3.004700	3.871300	-11.631000	21.599282	0.000935	20.967026
98.020723	-3.026200	3.868700	-11.706000	21.608089	0.000933	20.986268
99.019490	-3.013400	3.870200	-11.661000	21.616448	0.000934	20.960498
100.025017	-2.990500	3.870900	-11.575000	21.636594	0.000936	20.960270
101.021406	-3.008900	3.869200	-11.641000	21.654378	0.000935	20.965264
102.019724	-2.984600	3.871200	-11.553000	21.636348	0.000936	20.978039
103.022076	-3.034800	3.868600	-11.740000	21.641796	0.000934	20.960259
104.025039	-3.004700	3.869200	-11.626000	21.664292	0.000935	20.961910
105.020411	-2.985900	3.869900	-11.554000	21.671298	0.000937	20.985512
106.019824	-3.015800	3.869800	-11.669000	21.672093	0.000936	20.975405
107.022915	-2.995300	3.869500	-11.588000	21.680806	0.000934	20.977960
108.022714	-3.009000	3.869000	-11.641000	21.700181	0.000934	20.961316
109.020576	-3.033600	3.866200	-11.727000	21.691559	0.000937	20.977815
110.023499	-3.022100	3.869300	-11.693000	21.686796	0.000936	20.996753
111.018760	-3.009400	3.868100	-11.639000	21.703107	0.000935	20.992215
112.019569	-2.998200	3.868200	-11.596000	21.705255	0.000936	20.965446
113.020405	-3.006400	3.867300	-11.624000	21.726897	0.000937	20.974301
114.019857	-3.002500	3.867200	-11.610000	21.722192	0.000937	20.980497
115.020526	-2.988800	3.867800	-11.559000	21.739501	0.000938	20.976958
116.023487	-2.989000	3.866600	-11.556000	21.742318	0.000936	20.972192
117.023632	-2.994700	3.866600	-11.578000	21.748036	0.000936	20.962743
118.021507	-3.003000	3.868100	-11.615000	21.751005	0.000937	20.992262
119.024840	-3.014600	3.865900	-11.653000	21.758011	0.000936	20.972250
120.024001	-3.012200	3.867000	-11.647000	21.763830	0.000938	20.980917
121.024125	-2.988700	3.866900	-11.555000	21.765750	0.000937	20.975254
122.028630	-2.974700	3.866700	-11.501000	21.781138	0.000938	20.983541
123.026617	-2.998200	3.864300	-11.584000	21.780064	0.000937	20.989577
124.024869	-2.977800	3.866400	-11.512000	21.778599	0.000937	20.982423
125.032922	-2.993500	3.865100	-11.568000	21.794978	0.000939	20.980798
126.026103	-3.004700	3.865500	-11.613000	21.799122	0.000938	20.982101
127.028030	-3.006700	3.865600	-11.621000	21.809299	0.000937	20.991337
128.029320	-3.018700	3.864100	-11.663000	21.779428	0.000938	20.978511
129.030397	-2.999100	3.864100	-11.587000	21.803639	0.000938	20.985673
130.029507	-2.992600	3.864100	-11.563000	21.804865	0.000940	21.002544
131.029887	-3.010700	3.862800	-11.628000	21.816937	0.000939	20.994713
132.033420	-2.989700	3.864100	-11.550000	21.825030	0.000939	20.984324
133.027683	-2.999600	3.864000	-11.589000	21.865915	0.000940	20.998216
134.029535	-3.008700	3.862300	-11.619000	21.860679	0.000938	21.006250
135.034296	-3.007100	3.862900	-11.615000	21.863673	0.000940	20.991706
136.029839	-3.002500	3.862600	-11.596000	21.875068	0.000939	20.968976
137.033698	-3.000500	3.861800	-11.586000	21.880734	0.000939	20.982232
138.030546	-3.013500	3.862600	-11.639000	21.889431	0.000942	20.989513
139.032011	-3.008700	3.862900	-11.622000	21.883128	0.000941	20.988894
140.034321	-3.000400	3.862600	-11.589000	21.874110	0.000940	21.000728
141.032063	-3.005800	3.861700	-11.607000	21.882644	0.000940	20.981773
142.032474	-2.997800	3.862700	-11.579000	21.881486	0.000941	20.992941
143.034578	-2.986200	3.862000	-11.532000	21.864567	0.000940	20.967474
144.031393	-2.984000	3.862400	-11.524000	21.892726	0.000940	20.971003
145.034233	-3.007400	3.861600	-11.612000	21.906539	0.000940	20.987198
146.033884	-3.003100	3.861000	-11.594000	21.906412	0.000942	20.974271
147.033629	-2.995500	3.862300	-11.568000	21.915471	0.000943	20.977174
148.033991	-2.979500	3.862200	-11.505000	21.927989	0.000942	20.992547
149.032849	-2.999800	3.861800	-11.583000	21.939528	0.000944	20.954316
150.032610	-3.006000	3.860300	-11.603000	21.940508	0.000941	20.974735
151.032948	-3.010300	3.860500	-11.619000	21.938891	0.000943	20.970273
152.037381	-3.007600	3.860500	-11.610000	21.946716	0.000943	20.964356
153.044816	-3.008900	3.859800	-11.613000	21.957694	0.000945	20.955906
154.034214	-3.028000	3.859000	-11.684000	21.951511	0.000943	20.981481
155.032175	-3.009000	3.859900	-11.613000	21.984524	0.000943	20.948624
156.034418	-2.996300	3.859700	-11.564000	22.002447	0.000945	20.964667
157.032835	-3.018000	3.857800	-11.640000	21.968571	0.000945	20.971533
158.032336	-3.012200	3.858000	-11.619000	21.986357	0.000944	20.944770
159.035583	-3.005500	3.858000	-11.594000	22.006801	0.000945	20.961440
160.034667	-2.989100	3.859600	-11.535000	22.009516	0.000945	20.971269
161.037735	-2.983300	3.859100	-11.511000	22.002419	0.000944	20.972224
162.037498	-2.995300	3.858800	-11.557000	22.016451	0.000947	20.960195
163.035850	-2.997800	3.858000	-11.564000	21.981527	0.000947	20.950366
164.033708	-3.014700	3.858700	-11.631000	21.994815	0.000946	20.968406
165.041759	-3.002800	3.856900	-11.581000	22.008161	0.000947	20.942415
166.038967	-3.012500	3.856400	-11.616000	22.010106	0.000948	20.946258
167.039792	-2.992600	3.858100	-11.544000	22.009386	0.000948	20.949805
168.040016	-3.004700	3.856000	-11.585000	22.050044	0.000948	20.938825
169.035994	-3.006100	3.856500	-11.592000	22.045460	0.000948	20.934236
170.036735	-2.990400	3.856600	-11.532000	22.064944	0.000948	20.952791
171.039441	-3.029500	3.854900	-11.675000	22.056936	0.000949	20.954731
172.038095	-3.008100	3.855300	-11.596000	22.053331	0.000949	20.958235
173.035683	-3.009900	3.855200	-11.603000	22.073477	0.000948	20.933835
174.039141	-2.989900	3.856300	-11.528000	22.072429	0.000949	20.946060
175.044709	-2.987300	3.854600	-11.514000	22.084819	0.000950	20.946136
176.040917	-3.009600	3.854000	-11.597000	22.089834	0.000950	20.942622
177.040800	-3.004600	3.854400	-11.580000	22.069399	0.000950	20.944924
178.043194	-3.000500	3.854900	-11.566000	22.081688	0.000951	20.945373
179.040640	-3.010200	3.854100	-11.601000	22.071851	0.000951	20.951645
180.047735	-3.012700	3.854200	-11.610000	22.076070	0.000951	20.956343
181.040463	-3.003500	3.853300	-11.572000	22.091903	0.000952	20.934738
182.045347	-2.997000	3.853100	-11.547000	22.118357	0.000952	20.926609
183.040995	-2.998200	3.852700	-11.551000	22.114178	0.000953	20.942338
184.042598	-3.012200	3.853600	-11.607000	22.103140	0.000955	20.945038
185.046996	-2.983700	3.852900	-11.495000	22.102395	0.000954	20.938604
186.039907	-2.992000	3.853900	-11.530000	22.110649	0.000953	20.938332
187.044890	-2.977900	3.854600	-11.478000	22.086791	0.000953	20.946689
188.040606	-2.996600	3.853500	-11.546000	22.079254	0.000955	20.940566
189.039667	-3.003300	3.852100	-11.568000	22.100321	0.000957	20.942216
190.041557	-2.998300	3.852000	-11.548000	22.124457	0.000953	20.928924
191.045512	-2.997800	3.852900	-11.549000	22.106706	0.000955	20.937229
192.042719	-3.002100	3.850600	-11.559000	22.126952	0.000954	20.915776
193.042101	-3.007800	3.852900	-11.588000	22.135824	0.000955	20.929398
194.048062	-3.019100	3.850200	-11.622000	22.153651	0.000956	20.936339
195.047474	-2.991500	3.851900	-11.521000	22.172754	0.000958	20.926543
196.043021	-3.008200	3.852400	-11.587000	22.173785	0.000957	20.935160
197.048007	-2.964100	3.853000	-11.419000	22.183672	0.000958	20.929413
198.048358	-2.994100	3.852100	-11.532000	22.174013	0.000959	20.912158
199.044961	-3.002500	3.850200	-11.559000	22.181912	0.000958	20.941874
200.054077	-2.978900	3.851000	-11.471000	22.192533	0.000959	20.929750
201.053114	-3.004300	3.850000	-11.566000	22.202012	0.000958	20.932128
202.046264	-2.981900	3.849200	-11.477000	22.223551	0.000960	20.920978
203.048867	-3.017200	3.848800	-11.612000	22.220117	0.000961	20.930341
204.047781	-2.990200	3.849200	-11.509000	22.226501	0.000960	20.929621
205.049333	-3.026000	3.848100	-11.643000	22.238846	0.000960	20.917327
206.051389	-3.005500	3.849700	-11.569000	22.251506	0.000961	20.920519
207.059164	-3.026900	3.847800	-11.646000	22.266591	0.000962	20.918554
208.058683	-2.995800	3.848100	-11.526000	22.255548	0.000963	20.916506
209.053458	-3.011700	3.848400	-11.588000	22.291646	0.000961	20.925623
210.053359	-3.015700	3.847200	-11.601000	22.283256	0.000963	20.927653
211.056537	-2.975200	3.849600	-11.453000	22.296262	0.000962	20.922185
212.054253	-3.012500	3.847700	-11.591000	22.308260	0.000965	20.932775
213.056797	-2.996000	3.848600	-11.529000	22.291094	0.000962	20.926492
214.054658	-2.996500	3.848800	-11.532000	22.269192	0.000963	20.925899
215.055586	-2.991000	3.847300	-11.506000	22.290180	0.000966	20.926525
216.052160	-2.983600	3.848000	-11.480000	22.300851	0.000965	20.899281
217.053175	-3.008800	3.845500	-11.570000	22.302026	0.000966	20.905198
218.055030	-2.984300	3.847200	-11.481000	22.307513	0.000966	20.926338
219.058360	-2.996600	3.847100	-11.528000	22.330022	0.000969	20.922324
220.054458	-2.992700	3.848000	-11.515000	22.329895	0.000967	20.925516
221.058516	-2.982000	3.847400	-11.472000	22.339695	0.000966	20.927268
222.056094	-3.009000	3.844900	-11.568000	22.328161	0.000967	20.907660
223.057509	-2.993300	3.846200	-11.510000	22.333522	0.000968	20.916820
224.055882	-3.013500	3.844700	-11.584000	22.331205	0.000968	20.925879
225.057351	-3.016500	3.844700	-11.596000	22.342678	0.000968	20.904179
226.069198	-3.002200	3.844900	-11.542000	22.344478	0.000968	20.905982
227.066973	-3.015400	3.846000	-11.597000	22.340014	0.000970	20.894874
228.059089	-2.993900	3.845000	-11.510000	22.356587	0.000969	20.892030
229.071018	-2.986400	3.845500	-11.483000	22.371375	0.000970	20.923430
230.059946	-2.994700	3.845300	-11.515000	22.364297	0.000973	20.914922
231.063988	-3.019700	3.843700	-11.605000	22.364746	0.000972	20.909681
232.065934	-2.977500	3.846500	-11.452000	22.366224	0.000971	20.906421
233.060726	-2.992100	3.842900	-11.497000	22.388656	0.000974	20.894745
234.065241	-2.995600	3.844000	-11.514000	22.374401	0.000972	20.915555
235.066041	-3.003600	3.845300	-11.548000	22.382035	0.000974	20.908502
236.062698	-2.984700	3.844800	-11.473000	22.371144	0.000972	20.902813
237.060397	-3.000300	3.843400	-11.531000	22.404745	0.000976	20.916070
238.064740	-2.990900	3.842900	-11.492000	22.402648	0.000975	20.907334
239.069793	-2.985300	3.842700	-11.471000	22.424885	0.000976	20.900204
240.064640	-2.976900	3.842600	-11.438000	22.419000	0.000977	20.902372
241.067788	-2.988000	3.842700	-11.481000	22.443079	0.000975	20.904200
242.068668	-3.007400	3.842700	-11.555000	22.442682	0.000976	20.909965
243.060584	-2.993000	3.841400	-11.497000	22.452405	0.000976	20.915908
244.067928	-3.009800	3.842000	-11.562000	22.427903	0.000978	20.885210
245.077612	-2.992000	3.840800	-11.491000	22.423809	0.000979	20.911928
246.060589	-3.006200	3.841800	-11.549000	22.425829	0.000978	20.903521
247.063217	-3.012500	3.838500	-11.562000	22.403203	0.000977	20.896510
248.062995	-3.005200	3.840500	-11.541000	22.453992	0.000979	20.922713
249.069826	-3.003800	3.840400	-11.535000	22.433691	0.000978	20.899066
250.067084	-2.977000	3.840800	-11.433000	22.439398	0.000978	20.909522
251.083854	-2.993400	3.840700	-11.495000	22.452131	0.000980	20.899515
252.078193	-3.010100	3.840100	-11.557000	22.477131	0.000982	20.905585
253.075990	-2.988400	3.840500	-11.475000	22.474037	0.000982	20.898694
254.064565	-2.990800	3.838400	-11.478000	22.477461	0.000983	20.891691
255.063871	-2.981700	3.839300	-11.448000	22.480623	0.000982	20.901969
256.063558	-3.009000	3.838500	-11.549000	22.501159	0.000982	20.891242
257.065733	-2.983000	3.839300	-11.452000	22.523486	0.000983	20.923084
258.064055	-3.011100	3.837400	-11.554000	22.500143	0.000985	20.895441
259.063699	-2.982100	3.838700	-11.446000	22.514423	0.000984	20.895517
260.068140	-3.011100	3.837600	-11.555000	22.507253	0.000987	20.919628
261.076274	-3.000600	3.838900	-11.518000	22.507904	0.000986	20.912220
262.070148	-2.986100	3.838000	-11.460000	22.522183	0.000985	20.899021
263.079248	-3.005800	3.837400	-11.533000	22.523282	0.000987	20.895854
264.068373	-2.991900	3.836800	-11.478000	22.514565	0.000987	20.879065
265.069906	-2.995000	3.837400	-11.491000	22.522841	0.000986	20.892095
266.073348	-2.991200	3.838400	-11.481000	22.536181	0.000989	20.865628
267.078343	-3.004000	3.837000	-11.525000	22.548559	0.000988	20.905522
268.079787	-3.014800	3.837600	-11.568000	22.538346	0.000989	20.885338
269.070942	-2.997900	3.836100	-11.499000	22.564739	0.000988	20.878581
270.078657	-3.015600	3.836200	-11.567000	22.562017	0.000988	20.886286
271.074748	-2.998200	3.835900	-11.499000	22.550045	0.000991	20.896106
272.071534	-3.000400	3.835100	-11.506000	22.552108	0.000990	20.872096
