LabVIEW Measurement	
Writer_Version	2
Reader_Version	2
Separator	Tab
Decimal_Separator	.
Multi_Headings	No
X_Columns	One
Time_Pref	Absolute
Operator	admin
Description	Clolumns are: time, Current, Voltage, Power, Battery Temp, and Chamber Temp
Date	2024/08/16
Time	13:06:06.104549407958984375
***End_of_Header***	
	
Channels	6						
Samples	1	1	1	1	1	1	
Date	2024/09/18	2024/09/18	2024/09/18	2024/09/18	2024/09/18	2024/09/18	
Time	02:50:23.2333631515502929688	02:50:23.2394022941589355469	02:50:23.2494497299194335938	02:50:23.2123694419860839844	02:50:23.2123694419860839844	02:50:23.2123694419860839844	
X_Dimension	Time	Time	Time	Time	Time	Time	
X0	0.0000000000000000E+0	0.0000000000000000E+0	0.0000000000000000E+0	0.0000000000000000E+0	0.0000000000000000E+0	0.0000000000000000E+0	
Delta_X	1.000000	1.000000	1.000000	1.000000	1.000000	1.000000	
***End_of_Header***							
X_Value	Untitled	Untitled 1	Untitled 2	Untitled 3	Untitled 4	Untitled 5	Comment
0.000000	0.029006	4.093200	0.118640	21.009035	0.000974	20.713654
1.003612	-3.015700	3.908200	-11.784000	20.986454	0.000974	20.696758
1.996191	-2.990700	3.901400	-11.667000	21.010632	0.000973	20.717148
3.000840	-3.002300	3.896900	-11.698000	20.993016	0.000972	20.736040
4.000504	-2.982000	3.891800	-11.605000	20.994040	0.000968	20.725684
4.995108	-3.004700	3.886900	-11.676000	20.997059	0.000969	20.727280
5.997642	-3.021100	3.883900	-11.733000	20.989473	0.000968	20.716848
6.998095	-2.977200	3.883500	-11.561000	20.989025	0.000967	20.732522
8.006347	-2.987900	3.881100	-11.594000	20.997608	0.000967	20.733046
8.998757	-2.995800	3.877200	-11.614000	20.999978	0.000966	20.732098
9.999504	-2.988500	3.876100	-11.582000	21.016271	0.000965	20.703347
10.996329	-2.997400	3.875600	-11.615000	21.013901	0.000967	20.709986
12.001828	-3.002900	3.874800	-11.634000	21.005492	0.000965	20.731449
12.996952	-3.022100	3.869800	-11.695000	21.010458	0.000962	20.725035
14.006402	-2.991700	3.871100	-11.580000	21.014899	0.000962	20.717623
15.004029	-2.977100	3.869400	-11.519000	21.022260	0.000962	20.720717
15.996402	-3.007800	3.866600	-11.629000	21.024580	0.000961	20.713555
16.997640	-2.996400	3.864600	-11.577000	21.035259	0.000959	20.727556
18.002666	-3.020700	3.864500	-11.672000	21.031916	0.000961	20.723738
19.009710	-2.997400	3.864500	-11.582000	21.051552	0.000962	20.734844
20.002265	-3.017200	3.862200	-11.651000	21.036332	0.000960	20.721517
21.003154	-3.003800	3.861200	-11.597000	21.039651	0.000959	20.710136
22.010122	-2.999700	3.861800	-11.584000	21.072311	0.000959	20.731425
22.999918	-3.007200	3.859100	-11.604000	21.059686	0.000959	20.728755
24.001987	-3.022600	3.858900	-11.662000	21.081841	0.000960	20.721043
25.016943	-3.013600	3.857900	-11.624000	21.069042	0.000956	20.713456
26.000982	-3.015200	3.857700	-11.630000	21.088828	0.000958	20.724239
27.001224	-3.006700	3.857000	-11.596000	21.085459	0.000957	20.724662
28.011112	-3.010500	3.856900	-11.611000	21.100903	0.000957	20.738214
29.008848	-3.019400	3.854400	-11.637000	21.099057	0.000959	20.709813
30.002634	-3.014900	3.854400	-11.619000	21.107215	0.000956	20.706119
31.014787	-3.015800	3.854100	-11.622000	21.121861	0.000955	20.724089
32.001241	-3.024600	3.853100	-11.652000	21.140896	0.000955	20.729380
33.006203	-2.988200	3.854000	-11.515000	21.140148	0.000956	20.706819
34.003966	-2.997700	3.852300	-11.547000	21.123583	0.000954	20.706844
35.005355	-2.969300	3.854300	-11.444000	21.154169	0.000958	20.732699
36.005187	-2.985000	3.852100	-11.497000	21.153196	0.000954	20.718449
37.007563	-2.980000	3.851800	-11.478000	21.138027	0.000954	20.747374
38.014424	-2.998500	3.851900	-11.549000	21.174826	0.000956	20.728707
39.002612	-2.993100	3.850900	-11.525000	21.178717	0.000956	20.713632
40.010811	-2.996300	3.850300	-11.535000	21.215015	0.000956	20.729081
41.006230	-3.002900	3.849000	-11.555000	21.178767	0.000958	20.726011
42.011771	-2.982100	3.848800	-11.477000	21.214940	0.000956	20.761724
43.006177	-3.007000	3.847500	-11.569000	21.198026	0.000954	20.714456
44.008834	-3.000400	3.847100	-11.542000	21.211747	0.000955	20.723915
45.011714	-2.999700	3.846700	-11.538000	21.246821	0.000951	20.737666
46.019146	-2.995700	3.846500	-11.522000	21.235371	0.000954	20.728107
47.010397	-2.986200	3.846500	-11.486000	21.254330	0.000956	20.725262
48.003871	-2.986700	3.845500	-11.484000	21.273139	0.000953	20.742658
49.007118	-2.988900	3.846100	-11.494000	21.240859	0.000956	20.723640
50.017677	-3.019900	3.844100	-11.608000	21.262237	0.000952	20.736966
51.023824	-3.004300	3.843700	-11.547000	21.256849	0.000954	20.727308
52.007564	-3.001900	3.843200	-11.536000	21.277503	0.000953	20.728057
53.012634	-3.016600	3.843500	-11.593000	21.298433	0.000953	20.718649
54.004570	-3.003700	3.843100	-11.543000	21.282917	0.000955	20.741060
55.007287	-2.991900	3.844900	-11.503000	21.315894	0.000954	20.731851
56.009089	-2.974500	3.844200	-11.434000	21.319610	0.000950	20.727508
57.014138	-2.997900	3.842700	-11.519000	21.323002	0.000952	20.724263
58.011446	-3.006200	3.842100	-11.549000	21.326844	0.000954	20.732375
59.004954	-2.994800	3.842100	-11.505000	21.343905	0.000951	20.744703
60.006002	-3.017500	3.840600	-11.588000	21.347896	0.000953	20.764818
61.006123	-3.002000	3.840400	-11.527000	21.354431	0.000951	20.727258
62.017277	-3.021100	3.839200	-11.598000	21.356851	0.000953	20.733947
63.016805	-3.026400	3.838500	-11.616000	21.345003	0.000953	20.727782
64.012163	-3.001000	3.838900	-11.519000	21.370694	0.000954	20.734046
65.025858	-2.991000	3.839000	-11.482000	21.394390	0.000953	20.737840
66.014056	-3.005300	3.837500	-11.531000	21.386159	0.000955	20.740510
67.008854	-3.000900	3.837700	-11.516000	21.394764	0.000953	20.730153
68.012553	-3.018700	3.837600	-11.584000	21.413122	0.000954	20.741408
69.022471	-2.985600	3.837800	-11.457000	21.399229	0.000955	20.751216
70.008788	-2.974800	3.839200	-11.420000	21.420055	0.000954	20.736492
71.017498	-3.017300	3.835600	-11.572000	21.421926	0.000953	20.741209
72.013504	-3.014500	3.836300	-11.562000	21.440383	0.000954	20.735493
73.011755	-3.005900	3.836800	-11.533000	21.433698	0.000953	20.736866
74.019435	-3.005700	3.836000	-11.529000	21.461184	0.000955	20.728805
75.022134	-3.023700	3.834800	-11.593000	21.469539	0.000956	20.736217
76.028618	-2.996600	3.836700	-11.497000	21.476049	0.000954	20.726135
77.022414	-3.004600	3.835600	-11.524000	21.515330	0.000956	20.752639
78.015035	-3.002200	3.834700	-11.510000	21.477520	0.000955	20.747048
79.009595	-3.023200	3.832800	-11.587000	21.500914	0.000956	20.752913
80.013972	-2.974700	3.833900	-11.404000	21.507773	0.000955	20.740335
81.024867	-2.989600	3.833000	-11.457000	21.539646	0.000953	20.727183
82.009610	-2.990900	3.832800	-11.463000	21.553113	0.000955	20.747298
83.022190	-2.995900	3.833500	-11.483000	21.544908	0.000956	20.731026
84.021209	-2.992000	3.834300	-11.471000	21.526428	0.000954	20.757580
85.013654	-2.985100	3.832500	-11.438000	21.565233	0.000955	20.748520
86.013745	-2.992700	3.832600	-11.469000	21.551392	0.000955	20.762646
87.024042	-3.014600	3.832200	-11.551000	21.577054	0.000955	20.746598
88.017306	-2.983700	3.833400	-11.437000	21.551566	0.000956	20.742905
89.021866	-2.978500	3.833000	-11.416000	21.564385	0.000958	20.747197
90.019511	-3.004000	3.831300	-11.509000	21.580894	0.000956	20.766563
91.023331	-3.009200	3.832700	-11.532000	21.590820	0.000957	20.753262
92.020558	-2.997500	3.830800	-11.482000	21.624561	0.000958	20.753362
93.028193	-3.000400	3.830500	-11.491000	21.603987	0.000958	20.747472
94.014952	-3.000600	3.830700	-11.493000	21.633539	0.000961	20.758078
95.015285	-3.001100	3.830900	-11.496000	21.652940	0.000957	20.749044
96.027767	-3.009600	3.829900	-11.525000	21.604835	0.000958	20.763020
97.015936	-2.988500	3.831100	-11.448000	21.652641	0.000957	20.759651
98.022214	-3.002600	3.828900	-11.495000	21.655608	0.000957	20.756930
99.029230	-2.996100	3.828600	-11.470000	21.671443	0.000959	20.759027
100.031229	-3.001600	3.830000	-11.495000	21.654036	0.000959	20.750616
101.015747	-3.006500	3.827300	-11.504000	21.679497	0.000958	20.780838
102.031266	-3.001900	3.828900	-11.492000	21.681966	0.000958	20.789947
103.024594	-2.989900	3.828100	-11.445000	21.699396	0.000959	20.780364
104.018751	-2.983200	3.829300	-11.422000	21.689970	0.000960	20.757180
105.015339	-2.991600	3.827700	-11.450000	21.722163	0.000957	20.778018
106.022519	-2.986400	3.828600	-11.433000	21.698574	0.000960	20.773377
107.023375	-2.992400	3.828100	-11.453000	21.727772	0.000960	20.770830
108.022027	-3.009600	3.826900	-11.515000	21.718322	0.000959	20.754260
109.026297	-2.988900	3.827900	-11.440000	21.725429	0.000961	20.762321
110.022211	-2.985100	3.826600	-11.422000	21.749616	0.000960	20.765665
111.022425	-2.994400	3.827700	-11.460000	21.776545	0.000961	20.766538
112.020682	-3.000700	3.825900	-11.480000	21.757795	0.000960	20.760574
113.022810	-3.013600	3.824700	-11.525000	21.770362	0.000960	20.770781
114.022086	-3.001800	3.824700	-11.479000	21.768093	0.000961	20.761872
115.022239	-3.043000	3.822700	-11.629000	21.762408	0.000961	20.765666
116.027694	-3.000800	3.824700	-11.477000	21.780310	0.000962	20.786902
117.022486	-2.994400	3.824500	-11.450000	21.821651	0.000966	20.768535
118.029583	-2.998400	3.824600	-11.467000	21.817337	0.000964	20.789348
119.024693	-2.981600	3.823800	-11.400000	21.830502	0.000962	20.774075
120.025829	-3.007300	3.823400	-11.497000	21.842545	0.000964	20.761472
121.024205	-3.009800	3.822000	-11.502000	21.859723	0.000962	20.780090
122.027295	-2.978300	3.825400	-11.392000	21.873062	0.000962	20.766414
123.028342	-3.001700	3.823400	-11.475000	21.901135	0.000964	20.759900
124.026319	-2.993000	3.823600	-11.443000	21.875854	0.000964	20.768734
125.031550	-2.988900	3.821800	-11.421000	21.885329	0.000964	20.781537
126.025461	-3.008300	3.821700	-11.496000	21.879121	0.000966	20.773427
127.028171	-2.990200	3.822100	-11.426000	21.914050	0.000965	20.771879
128.033192	-2.995200	3.822500	-11.446000	21.932923	0.000966	20.772753
129.032830	-2.999900	3.821200	-11.462000	21.921953	0.000965	20.761298
130.028239	-3.014200	3.820800	-11.515000	21.933820	0.000969	20.762271
131.026181	-3.009100	3.820900	-11.496000	21.939130	0.000966	20.785131
132.023731	-3.003400	3.821300	-11.477000	21.959698	0.000968	20.781063
133.029258	-2.979300	3.820400	-11.382000	21.960496	0.000969	20.776646
134.027315	-2.993700	3.821500	-11.439000	21.959523	0.000968	20.764766
135.036267	-3.010600	3.820900	-11.503000	21.977921	0.000968	20.784132
136.028214	-3.005100	3.819200	-11.476000	21.994026	0.000969	20.805943
137.025229	-2.976000	3.820200	-11.367000	21.971814	0.000970	20.793665
138.029805	-2.999200	3.818500	-11.451000	21.972811	0.000970	20.770481
139.036958	-2.996700	3.818500	-11.442000	22.002427	0.000969	20.787801
140.034368	-2.996500	3.818500	-11.441000	22.007339	0.000971	20.790346
141.028918	-3.014200	3.818800	-11.509000	22.026534	0.000972	20.780164
142.028396	-3.008500	3.818700	-11.487000	22.028354	0.000971	20.783883
143.035961	-3.025100	3.818000	-11.549000	22.038052	0.000970	20.786479
144.030869	-2.997200	3.819400	-11.446000	22.051114	0.000971	20.792918
145.031587	-3.019800	3.817600	-11.527000	22.056923	0.000971	20.788301
146.036201	-3.010900	3.819500	-11.499000	22.042390	0.000972	20.787502
147.035395	-3.034300	3.815100	-11.575000	22.070583	0.000974	20.823313
148.034174	-3.012400	3.816700	-11.496000	22.056549	0.000972	20.795513
149.027050	-3.008200	3.817000	-11.481000	22.055975	0.000974	20.785456
150.030290	-3.018800	3.816900	-11.520000	22.027059	0.000975	20.790647
151.034555	-2.998600	3.816300	-11.442000	22.049394	0.000976	20.794989
152.034068	-2.986900	3.816900	-11.399000	22.068838	0.000972	20.799756
153.035875	-2.987000	3.815700	-11.397000	22.075943	0.000973	20.790747
154.029194	-3.003100	3.815600	-11.457000	22.097530	0.000975	20.784857
155.042352	-2.979500	3.816300	-11.370000	22.073127	0.000973	20.800729
156.034541	-3.000000	3.814400	-11.442000	22.089878	0.000975	20.805171
157.028315	-2.989600	3.814800	-11.403000	22.102765	0.000979	20.790098
158.048015	-3.015700	3.813900	-11.501000	22.087210	0.000978	20.816725
159.028643	-3.001400	3.814800	-11.449000	22.099375	0.000976	20.819420
160.033349	-3.001300	3.814900	-11.448000	22.107351	0.000977	20.804173
161.032238	-2.982600	3.814900	-11.378000	22.147259	0.000979	20.799556
162.033801	-3.009300	3.812800	-11.471000	22.153814	0.000980	20.805645
163.031309	-2.998400	3.812700	-11.432000	22.171213	0.000979	20.803150
164.032481	-3.028600	3.811800	-11.544000	22.159448	0.000979	20.792793
165.037862	-2.990100	3.813300	-11.401000	22.177618	0.000980	20.818097
166.036516	-2.997700	3.812200	-11.427000	22.203815	0.000981	20.816351
167.037252	-3.004000	3.812300	-11.449000	22.201172	0.000981	20.808964
168.040771	-2.987600	3.812700	-11.390000	22.231780	0.000981	20.804048
169.034353	-2.998600	3.811700	-11.429000	22.245888	0.000981	20.812483
170.035827	-2.991000	3.811700	-11.400000	22.258648	0.000983	20.833320
171.035372	-2.976500	3.811800	-11.344000	22.275821	0.000986	20.799306
172.042163	-2.978000	3.812700	-11.354000	22.270910	0.000982	20.812882
173.032041	-2.993300	3.811400	-11.408000	22.256505	0.000986	20.806044
174.043030	-2.999700	3.811800	-11.433000	22.288407	0.000983	20.812857
175.034467	-3.014800	3.809500	-11.484000	22.298326	0.000985	20.821366
176.038738	-3.016100	3.809500	-11.489000	22.301591	0.000986	20.827480
177.036487	-3.025900	3.808500	-11.523000	22.298799	0.000986	20.813780
178.044959	-3.013600	3.808200	-11.474000	22.306227	0.000986	20.813157
179.043862	-3.007700	3.810000	-11.458000	22.313928	0.000989	20.836040
180.040082	-2.998400	3.809700	-11.423000	22.342414	0.000987	20.841331
181.039762	-3.005200	3.809400	-11.447000	22.310165	0.000987	20.829902
182.038368	-3.009000	3.809100	-11.460000	22.323448	0.000991	20.825659
183.033261	-2.998600	3.808000	-11.418000	22.324994	0.000988	20.836689
184.043009	-2.980700	3.809000	-11.351000	22.327137	0.000988	20.825086
185.040604	-3.021200	3.807200	-11.500000	22.354027	0.000988	20.823089
186.038397	-3.004400	3.808300	-11.440000	22.374364	0.000991	20.837288
187.037283	-3.003900	3.808500	-11.439000	22.372444	0.000990	20.831573
188.039179	-3.001300	3.808900	-11.430000	22.366539	0.000990	20.838936
189.039356	-2.996400	3.806800	-11.406000	22.355373	0.000992	20.828703
190.043534	-2.991400	3.807800	-11.389000	22.369330	0.000990	20.828929
191.043889	-3.016700	3.806500	-11.481000	22.388294	0.000992	20.841755
192.044725	-3.000000	3.806900	-11.417000	22.404941	0.000992	20.847520
193.043179	-2.994300	3.805800	-11.394000	22.405988	0.000994	20.844301
194.041180	-2.989600	3.807000	-11.380000	22.424803	0.000993	20.833271
195.047655	-3.006100	3.806300	-11.441000	22.434123	0.000992	20.835966
196.039105	-3.000900	3.804800	-11.417000	22.441300	0.000994	20.828455
197.045812	-3.015300	3.803900	-11.469000	22.452613	0.000995	20.840732
198.039261	-2.981900	3.805700	-11.346000	22.464325	0.000996	20.834918
199.046181	-2.983400	3.804500	-11.349000	22.464175	0.000997	20.844724
200.040243	-2.991800	3.804700	-11.383000	22.471676	0.000996	20.832322
201.048766	-3.022200	3.805000	-11.498000	22.471128	0.000995	20.821816
202.040926	-2.994800	3.804700	-11.393000	22.456700	0.001003	20.847195
203.054185	-3.000300	3.804200	-11.412000	22.461185	0.001000	20.845523
204.045707	-3.014600	3.803200	-11.463000	22.488796	0.000998	20.856104
205.050314	-3.018200	3.804400	-11.481000	22.478529	0.000999	20.850564
206.055805	-3.011700	3.803300	-11.453000	22.473221	0.000998	20.853783
207.048676	-3.039100	3.802200	-11.553000	22.482242	0.001001	20.843377
208.045765	-3.021400	3.801800	-11.486000	22.508506	0.001002	20.852610
209.045138	-3.010400	3.804000	-11.451000	22.508157	0.001002	20.838985
210.040192	-3.010000	3.801400	-11.442000	22.530284	0.001003	20.864463
211.064464	-3.005200	3.801300	-11.423000	22.554653	0.001002	20.833395
212.046363	-2.984700	3.802500	-11.348000	22.554578	0.001003	20.856078
213.042719	-3.013300	3.801400	-11.453000	22.574687	0.001001	20.849665
214.046569	-2.982200	3.801700	-11.336000	22.566115	0.001005	20.857202
215.043781	-2.985600	3.801500	-11.348000	22.570326	0.001004	20.840557
216.054938	-3.030600	3.799400	-11.513000	22.578897	0.001003	20.854831
217.044277	-3.019700	3.801100	-11.476000	22.584280	0.001003	20.855006
218.044324	-2.989500	3.801800	-11.364000	22.618365	0.001003	20.868755
219.056095	-2.985700	3.799300	-11.343000	22.630573	0.001005	20.865337
220.048053	-2.996800	3.799400	-11.386000	22.639693	0.001005	20.864987
221.050326	-2.994000	3.800000	-11.376000	22.643380	0.001006	20.856827
222.056931	-2.998100	3.798900	-11.388000	22.654766	0.001007	20.863490
223.044829	-3.002300	3.799400	-11.405000	22.650331	0.001007	20.878487
224.059935	-3.001300	3.799300	-11.401000	22.633313	0.001009	20.864762
225.057341	-3.003900	3.798600	-11.410000	22.645423	0.001007	20.855554
226.048450	-3.003800	3.797800	-11.406000	22.656161	0.001010	20.872948
227.050659	-3.000600	3.797400	-11.393000	22.660895	0.001008	20.870102
228.049283	-2.978000	3.797400	-11.308000	22.658253	0.001011	20.876939
229.049755	-2.994900	3.797200	-11.371000	22.686731	0.001010	20.853308
230.058040	-2.989800	3.798000	-11.353000	22.707061	0.001011	20.877463
231.054328	-3.002700	3.797100	-11.401000	22.685062	0.001011	20.860171
232.049907	-3.020800	3.797300	-11.470000	22.730255	0.001011	20.881730
233.052461	-3.019200	3.795700	-11.458000	22.735437	0.001010	20.878387
234.051405	-3.004400	3.796800	-11.406000	22.734989	0.001011	20.885523
235.063374	-3.016000	3.795300	-11.444000	22.722133	0.001010	20.864587
236.061992	-2.999600	3.797000	-11.388000	22.709128	0.001015	20.871474
237.057889	-2.995000	3.796900	-11.371000	22.729358	0.001013	20.871350
238.050025	-3.001100	3.796600	-11.393000	22.726169	0.001013	20.877164
239.054458	-3.002700	3.794600	-11.393000	22.762343	0.001016	20.870726
240.052405	-3.022400	3.795300	-11.469000	22.782098	0.001015	20.887669
241.051828	-2.988800	3.795100	-11.341000	22.784341	0.001018	20.900820
242.052652	-3.010600	3.793800	-11.420000	22.795924	0.001016	20.864537
243.054192	-2.986900	3.796300	-11.338000	22.794181	0.001018	20.897875
244.051555	-3.002900	3.795200	-11.395000	22.802850	0.001018	20.870526
245.061497	-2.979600	3.795600	-11.308000	22.783593	0.001015	20.861193
246.058641	-2.984100	3.793900	-11.320000	22.790892	0.001017	20.877988
247.065235	-2.987600	3.794500	-11.336000	22.792163	0.001019	20.874519
248.053687	-3.001200	3.792300	-11.381000	22.816278	0.001021	20.875443
249.072155	-3.005100	3.792900	-11.397000	22.820812	0.001022	20.884252
250.058483	-3.005600	3.792400	-11.397000	22.843680	0.001020	20.878711
251.051259	-2.992600	3.793600	-11.350000	22.851228	0.001021	20.893859
252.057527	-2.993900	3.791400	-11.350000	22.848787	0.001024	20.891413
253.066574	-3.001700	3.792500	-11.383000	22.873821	0.001024	20.894682
254.062920	-3.002500	3.790900	-11.381000	22.864355	0.001021	20.876665
255.066086	-2.989400	3.791500	-11.333000	22.882489	0.001024	20.888193
256.056479	-2.995900	3.792100	-11.359000	22.865352	0.001023	20.896628
257.058411	-2.984800	3.790700	-11.314000	22.897236	0.001022	20.892061
258.060394	-2.994400	3.790000	-11.347000	22.881045	0.001023	20.874893
259.055305	-3.011500	3.790100	-11.413000	22.892952	0.001022	20.875442
260.055223	-3.008100	3.790400	-11.400000	22.884009	0.001024	20.881181
261.058431	-3.005500	3.788200	-11.385000	22.878130	0.001026	20.875292
262.064122	-2.999800	3.789000	-11.365000	22.909367	0.001026	20.891886
263.056018	-3.013400	3.788400	-11.415000	22.906079	0.001027	20.889541
264.064855	-2.984700	3.790000	-11.311000	22.927426	0.001026	20.881531
265.056780	-3.014000	3.788600	-11.418000	22.924162	0.001029	20.893907
266.063430	-3.006100	3.788500	-11.387000	22.951736	0.001027	20.884550
267.059369	-3.008600	3.787900	-11.396000	22.972360	0.001031	20.864437
268.060208	-2.981100	3.787700	-11.290000	22.960031	0.001029	20.880532
269.061241	-2.987600	3.788800	-11.318000	22.973406	0.001028	20.883976
270.057590	-3.000000	3.786900	-11.358000	22.965236	0.001031	20.868679
271.058864	-2.994000	3.788200	-11.339000	22.946082	0.001029	20.877937
272.058522	-2.990600	3.788300	-11.329000	22.948772	0.001031	20.856926
