LabVIEW Measurement	
Writer_Version	2
Reader_Version	2
Separator	Tab
Decimal_Separator	.
Multi_Headings	No
X_Columns	One
Time_Pref	Absolute
Operator	admin
Description	Clolumns are: time, Current, Voltage, Power, Battery Temp, and Chamber Temp
Date	2024/08/16
Time	13:06:06.104549407958984375
***End_of_Header***	
	
Channels	6						
Samples	1	1	1	1	1	1	
Date	2024/08/24	2024/08/24	2024/08/24	2024/08/24	2024/08/24	2024/08/24	
Time	05:39:35.0692033767700195313	05:39:35.076694488525390625	05:39:35.0847382545471191406	05:39:35.0485854148864746094	05:39:35.0485854148864746094	05:39:35.0485854148864746094	
X_Dimension	Time	Time	Time	Time	Time	Time	
X0	0.0000000000000000E+0	0.0000000000000000E+0	0.0000000000000000E+0	0.0000000000000000E+0	0.0000000000000000E+0	0.0000000000000000E+0	
Delta_X	1.000000	1.000000	1.000000	1.000000	1.000000	1.000000	
***End_of_Header***							
X_Value	Untitled	Untitled 1	Untitled 2	Untitled 3	Untitled 4	Untitled 5	Comment
0.000000	0.029892	4.113700	0.122810	21.014204	0.000972	20.838312
0.994865	-3.020400	3.955300	-11.946000	20.992692	0.000972	20.833867
1.996512	-3.011800	3.948400	-11.891000	21.013477	0.000972	20.843276
2.997668	-2.998000	3.943900	-11.823000	20.988407	0.000969	20.827210
3.999956	-2.996000	3.939500	-11.802000	20.998480	0.000969	20.846767
4.997483	-2.993900	3.935800	-11.783000	21.008263	0.000970	20.839957
6.005202	-3.002900	3.933300	-11.811000	20.999803	0.000966	20.839082
6.998166	-2.990900	3.930400	-11.756000	21.005235	0.000967	20.813695
8.001961	-3.006200	3.929300	-11.811000	21.003245	0.000965	20.834938
9.001114	-3.001800	3.925500	-11.781000	20.994010	0.000964	20.824754
9.998417	-2.994500	3.924100	-11.750000	20.991615	0.000963	20.830893
10.996446	-3.019200	3.921300	-11.838000	21.027718	0.000965	20.820536
12.000662	-2.992100	3.921300	-11.732000	21.016809	0.000963	20.809625
13.002728	-3.016000	3.919600	-11.819000	21.026513	0.000964	20.834028
13.996508	-2.995800	3.918100	-11.737000	21.018300	0.000962	20.824866
14.997515	-3.000700	3.917300	-11.754000	21.017604	0.000962	20.832705
15.997222	-3.013300	3.914400	-11.793000	21.017727	0.000961	20.817655
16.998958	-2.995500	3.913900	-11.722000	21.034892	0.000963	20.840987
17.999953	-3.019200	3.911400	-11.808000	21.037282	0.000958	20.820618
19.005708	-2.998900	3.912700	-11.733000	21.021139	0.000960	20.822490
19.998291	-3.023000	3.910200	-11.819000	21.037978	0.000956	20.813728
20.999272	-3.006700	3.909000	-11.752000	21.049928	0.000960	20.826628
22.000583	-3.002400	3.909200	-11.736000	21.043014	0.000959	20.837731
23.003289	-3.005600	3.907800	-11.744000	21.065867	0.000956	20.817916
24.005846	-3.000600	3.906500	-11.721000	21.062604	0.000957	20.809910
25.005821	-2.979100	3.907400	-11.640000	21.065344	0.000955	20.813125
26.001203	-2.999500	3.906800	-11.718000	21.071599	0.000955	20.841667
27.002194	-2.986000	3.905900	-11.661000	21.083678	0.000954	20.804437
28.001085	-3.003200	3.903800	-11.723000	21.072271	0.000954	20.836648
29.001272	-3.009800	3.903400	-11.746000	21.077036	0.000953	20.812492
30.003534	-2.992000	3.903900	-11.679000	21.059995	0.000953	20.805878
31.008362	-3.005500	3.901900	-11.727000	21.093726	0.000952	20.810220
32.004786	-2.996000	3.902300	-11.690000	21.106045	0.000951	20.800731
33.001993	-3.019400	3.901900	-11.778000	21.117200	0.000951	20.819949
34.000110	-3.001400	3.900600	-11.706000	21.104875	0.000952	20.810466
35.002832	-3.011300	3.900400	-11.744000	21.101902	0.000950	20.786156
36.000398	-2.994000	3.899100	-11.673000	21.093770	0.000948	20.827333
37.003656	-2.992600	3.899800	-11.669000	21.107382	0.000948	20.829569
38.004404	-3.017200	3.897200	-11.758000	21.130111	0.000949	20.817217
39.007554	-2.995400	3.898800	-11.677000	21.130807	0.000949	20.797050
40.005226	-3.001500	3.896400	-11.694000	21.134273	0.000948	20.816164
41.005672	-3.015300	3.896600	-11.749000	21.150438	0.000948	20.795825
42.005767	-3.007500	3.896100	-11.717000	21.150211	0.000948	20.804607
43.003968	-3.014000	3.895300	-11.739000	21.152200	0.000946	20.817976
44.005188	-2.994200	3.895200	-11.661000	21.168544	0.000945	20.828160
45.006052	-2.993900	3.895300	-11.661000	21.162752	0.000948	20.799608
46.005787	-2.996100	3.894000	-11.666000	21.167768	0.000946	20.803203
47.009181	-3.007300	3.893100	-11.707000	21.177544	0.000946	20.785956
48.008026	-2.969800	3.894600	-11.565000	21.179736	0.000944	20.790519
49.010257	-3.020700	3.891900	-11.755000	21.183405	0.000946	20.797034
50.009277	-2.987100	3.893400	-11.629000	21.196419	0.000944	20.800570
51.011652	-2.999600	3.892000	-11.673000	21.214351	0.000944	20.809025
52.014369	-2.984400	3.891700	-11.613000	21.209063	0.000946	20.779553
53.015790	-3.028300	3.889200	-11.775000	21.218143	0.000944	20.782946
54.010301	-3.012500	3.890200	-11.718000	21.205518	0.000943	20.795447
55.011139	-3.004900	3.890200	-11.689000	21.221431	0.000942	20.799512
56.011598	-3.010400	3.891700	-11.714000	21.236143	0.000942	20.805695
57.013087	-3.015500	3.890300	-11.730000	21.235472	0.000943	20.782738
58.012341	-2.997400	3.889900	-11.659000	21.247741	0.000941	20.768459
59.012201	-2.999800	3.889000	-11.665000	21.255398	0.000943	20.792241
60.016816	-2.999700	3.889300	-11.666000	21.254267	0.000942	20.814342
61.016362	-3.005800	3.889100	-11.689000	21.231486	0.000941	20.807200
62.013397	-2.992100	3.890400	-11.640000	21.270149	0.000942	20.801307
63.015934	-2.994600	3.887700	-11.641000	21.276231	0.000940	20.794590
64.012454	-2.989400	3.889800	-11.628000	21.277370	0.000942	20.790514
65.015922	-2.992900	3.888500	-11.636000	21.261157	0.000941	20.775242
66.016764	-3.021000	3.887400	-11.743000	21.295978	0.000940	20.773094
67.017540	-3.032100	3.886100	-11.781000	21.298244	0.000939	20.783895
68.013660	-2.994800	3.887500	-11.641000	21.299137	0.000941	20.798065
69.019179	-2.986900	3.887700	-11.611000	21.306591	0.000938	20.804574
70.016734	-3.002100	3.885300	-11.663000	21.301920	0.000938	20.781410
71.014637	-3.012500	3.885400	-11.704000	21.321648	0.000938	20.817741
72.016572	-3.012600	3.886700	-11.709000	21.332321	0.000941	20.789065
73.015257	-3.010900	3.886000	-11.700000	21.314385	0.000937	20.766853
74.016729	-2.999100	3.885000	-11.650000	21.332908	0.000936	20.783487
75.020113	-2.992900	3.885700	-11.628000	21.352087	0.000939	20.788451
76.019695	-2.950600	3.888100	-11.471000	21.342584	0.000938	20.789375
77.021810	-2.992300	3.885600	-11.626000	21.354100	0.000938	20.791414
78.022734	-2.985000	3.884200	-11.593000	21.364650	0.000939	20.777787
79.019621	-3.003400	3.884700	-11.666000	21.377761	0.000938	20.786163
80.017654	-2.986400	3.884000	-11.598000	21.363617	0.000936	20.784340
81.018845	-2.992400	3.883400	-11.620000	21.372789	0.000937	20.794465
82.021660	-2.982400	3.885000	-11.586000	21.376378	0.000937	20.792365
83.021289	-2.988600	3.884200	-11.607000	21.370686	0.000937	20.804688
84.028321	-3.014200	3.882500	-11.701000	21.390412	0.000936	20.796449
85.016012	-2.991300	3.883500	-11.614000	21.373050	0.000938	20.777182
86.018807	-2.995600	3.884000	-11.634000	21.391779	0.000936	20.799240
87.023732	-2.969700	3.885000	-11.537000	21.389982	0.000937	20.798390
88.018402	-3.007600	3.881500	-11.673000	21.420030	0.000935	20.790996
89.024466	-2.994500	3.881300	-11.621000	21.410023	0.000938	20.786199
90.024687	-3.017100	3.881700	-11.710000	21.428979	0.000935	20.789993
91.023779	-2.980800	3.882800	-11.573000	21.423139	0.000936	20.795529
92.028974	-2.988900	3.880500	-11.598000	21.431620	0.000935	20.763237
93.028981	-2.993300	3.880800	-11.616000	21.442791	0.000936	20.793380
94.025576	-3.001300	3.880800	-11.647000	21.440145	0.000937	20.767973
95.021016	-3.005100	3.880500	-11.660000	21.441611	0.000936	20.769914
96.024666	-2.984900	3.881300	-11.584000	21.456701	0.000935	20.791177
97.023389	-2.987200	3.879700	-11.588000	21.463952	0.000936	20.794165
98.031116	-2.996300	3.878300	-11.620000	21.465048	0.000936	20.775346
99.033397	-3.001200	3.877600	-11.637000	21.458359	0.000936	20.771973
100.033187	-3.023900	3.877400	-11.723000	21.464919	0.000936	20.778537
101.026390	-3.005000	3.877600	-11.651000	21.505721	0.000935	20.781431
102.027812	-3.018700	3.876900	-11.702000	21.481173	0.000934	20.776783
103.029850	-3.013500	3.878000	-11.686000	21.510953	0.000935	20.764855
104.030043	-3.005500	3.878700	-11.657000	21.521299	0.000936	20.762879
105.029841	-2.998100	3.877100	-11.623000	21.517459	0.000937	20.778951
106.031486	-2.991100	3.877900	-11.597000	21.547133	0.000934	20.767393
107.028626	-2.987700	3.877700	-11.584000	21.529176	0.000933	20.779771
108.027437	-2.979400	3.878100	-11.553000	21.569122	0.000934	20.774224
109.030123	-2.990700	3.877300	-11.594000	21.539043	0.000934	20.778738
110.032301	-2.995800	3.877100	-11.613000	21.557572	0.000934	20.767407
111.028344	-3.011100	3.877500	-11.674000	21.537947	0.000932	20.777641
112.034406	-3.019300	3.875700	-11.701000	21.547493	0.000934	20.779133
113.028092	-3.005500	3.876300	-11.648000	21.543025	0.000935	20.787465
114.027566	-3.004600	3.876400	-11.646000	21.553075	0.000935	20.774287
115.029244	-3.011800	3.875100	-11.671000	21.556540	0.000937	20.786289
116.036771	-3.000300	3.875600	-11.627000	21.573445	0.000935	20.775230
117.031438	-2.988300	3.874200	-11.576000	21.555291	0.000935	20.777927
118.031986	-2.987700	3.875200	-11.576000	21.574442	0.000934	20.776702
119.037998	-2.991400	3.874000	-11.588000	21.576984	0.000935	20.768340
120.028150	-2.988300	3.875400	-11.580000	21.583869	0.000936	20.773333
121.037270	-2.987400	3.875400	-11.577000	21.608730	0.000933	20.758856
122.032966	-3.023700	3.873600	-11.711000	21.593296	0.000936	20.755266
123.035454	-2.990700	3.875300	-11.589000	21.629923	0.000935	20.766314
124.036519	-2.992200	3.873200	-11.588000	21.632169	0.000937	20.747698
125.035702	-3.003600	3.872700	-11.629000	21.615481	0.000936	20.761820
126.034311	-2.990200	3.872900	-11.579000	21.609450	0.000935	20.763371
127.036462	-2.996100	3.873400	-11.604000	21.605783	0.000936	20.749743
128.038435	-2.991300	3.873600	-11.585000	21.621246	0.000937	20.755260
129.037631	-3.008700	3.871400	-11.644000	21.621187	0.000936	20.743346
130.034713	-2.990900	3.872500	-11.581000	21.648648	0.000937	20.759449
131.035379	-2.987800	3.873400	-11.572000	21.641886	0.000935	20.758372
132.035555	-2.996800	3.872100	-11.603000	21.642212	0.000937	20.768181
133.039542	-3.001600	3.872600	-11.623000	21.671065	0.000937	20.761493
134.040621	-2.996200	3.871800	-11.600000	21.661687	0.000937	20.759221
135.037648	-2.988500	3.872500	-11.572000	21.685618	0.000936	20.748557
136.036165	-3.002400	3.873500	-11.629000	21.678610	0.000936	20.737750
137.040166	-3.010000	3.871500	-11.653000	21.709007	0.000938	20.747781
138.044168	-3.002600	3.871700	-11.624000	21.719706	0.000935	20.758016
139.038168	-2.986800	3.872500	-11.565000	21.715861	0.000937	20.731407
140.040201	-3.019900	3.870700	-11.689000	21.713216	0.000938	20.742511
141.038511	-2.997900	3.870400	-11.602000	21.699402	0.000938	20.748601
142.043609	-3.008200	3.870900	-11.644000	21.718250	0.000938	20.753713
143.043072	-3.034900	3.870100	-11.744000	21.721339	0.000939	20.737838
144.042080	-3.012900	3.869100	-11.656000	21.752183	0.000940	20.728404
145.046237	-2.994300	3.869100	-11.585000	21.749483	0.000940	20.769325
146.043954	-2.983800	3.870300	-11.546000	21.744943	0.000941	20.754824
147.043809	-2.986200	3.870200	-11.556000	21.748906	0.000941	20.745987
148.046223	-3.042600	3.868500	-11.769000	21.761371	0.000939	20.746609
149.043513	-3.002800	3.867800	-11.613000	21.756875	0.000941	20.736893
150.045499	-2.995600	3.870600	-11.593000	21.777696	0.000942	20.736869
151.048314	-2.985100	3.870700	-11.553000	21.793349	0.000942	20.738785
152.053224	-3.011200	3.868400	-11.648000	21.777764	0.000941	20.733144
153.049780	-2.974700	3.869000	-11.509000	21.772326	0.000941	20.716320
154.048444	-3.008400	3.869000	-11.638000	21.779624	0.000939	20.748757
155.050254	-2.988600	3.869600	-11.562000	21.799028	0.000943	20.760117
156.046946	-3.003500	3.867300	-11.614000	21.811488	0.000942	20.740819
157.050118	-3.003900	3.868000	-11.617000	21.804037	0.000940	20.723877
158.048659	-3.007200	3.866400	-11.626000	21.802789	0.000942	20.719782
159.050290	-3.013900	3.867200	-11.655000	21.808621	0.000942	20.742691
160.056997	-2.994600	3.867100	-11.579000	21.801110	0.000944	20.747976
161.052065	-3.013900	3.866900	-11.654000	21.811459	0.000944	20.719451
162.057702	-2.985600	3.866300	-11.542000	21.833995	0.000944	20.739164
163.055608	-2.967300	3.867800	-11.477000	21.800188	0.000944	20.739465
164.048601	-2.993800	3.866900	-11.575000	21.818954	0.000944	20.730747
165.056989	-2.994300	3.864700	-11.571000	21.858653	0.000945	20.737766
166.054624	-2.997000	3.865200	-11.582000	21.840899	0.000944	20.733271
167.049265	-3.003300	3.865300	-11.607000	21.861915	0.000944	20.732970
168.057098	-3.021600	3.864400	-11.675000	21.863459	0.000943	20.717445
169.053608	-3.015700	3.864500	-11.653000	21.875426	0.000946	20.713775
170.053520	-2.987900	3.865000	-11.547000	21.895686	0.000944	20.722201
171.052914	-2.984600	3.865900	-11.537000	21.905214	0.000947	20.729843
172.055278	-2.982600	3.864600	-11.526000	21.898928	0.000944	20.752475
173.055915	-3.003700	3.864600	-11.607000	21.923683	0.000946	20.736950
174.053377	-2.993300	3.864400	-11.565000	21.907578	0.000948	20.720354
175.058277	-3.006500	3.863200	-11.613000	21.926698	0.000946	20.735701
176.054523	-3.006900	3.865000	-11.621000	21.943800	0.000945	20.720102
177.055428	-3.025400	3.862600	-11.685000	21.927394	0.000948	20.736397
178.059194	-2.997400	3.863600	-11.580000	21.929737	0.000947	20.743011
179.055912	-2.982000	3.864600	-11.523000	21.949430	0.000949	20.729531
180.054022	-3.028200	3.862000	-11.694000	21.930586	0.000947	20.725842
181.059393	-2.988900	3.863300	-11.546000	21.953244	0.000947	20.740936
182.056075	-2.986100	3.863300	-11.534000	21.957630	0.000947	20.713557
183.058145	-3.011200	3.861600	-11.627000	21.977973	0.000948	20.736767
184.060048	-2.986500	3.862200	-11.533000	21.959826	0.000949	20.735671
185.058405	-2.989600	3.863200	-11.549000	21.986672	0.000949	20.719869
186.057550	-3.004400	3.861700	-11.600000	21.998790	0.000950	20.718724
187.059586	-3.003600	3.861600	-11.598000	21.992006	0.000947	20.745124
188.059845	-2.994100	3.862600	-11.564000	22.021471	0.000951	20.701598
189.056902	-2.982500	3.863200	-11.521000	22.022541	0.000950	20.709309
190.061479	-3.010900	3.861500	-11.626000	22.015713	0.000949	20.692989
191.060716	-3.003500	3.860200	-11.592000	22.037348	0.000949	20.721761
192.058608	-3.010400	3.860900	-11.621000	22.039667	0.000951	20.736885
193.059626	-2.999600	3.860300	-11.579000	22.044605	0.000951	20.719543
194.059732	-2.986900	3.860600	-11.531000	22.028718	0.000950	20.717389
195.060289	-3.003600	3.861600	-11.597000	22.042232	0.000952	20.735186
196.059266	-2.990600	3.860300	-11.544000	22.039957	0.000951	20.705880
197.057641	-3.009300	3.859300	-11.613000	22.051951	0.000951	20.723104
198.058799	-3.004500	3.860500	-11.598000	22.048661	0.000952	20.718387
199.061046	-3.004200	3.859100	-11.593000	22.045912	0.000953	20.739345
200.058951	-2.995500	3.859700	-11.561000	22.067779	0.000953	20.705283
201.059913	-2.993300	3.859400	-11.551000	22.049203	0.000952	20.726043
202.060909	-2.986600	3.859600	-11.526000	22.061222	0.000954	20.730963
203.068609	-2.970000	3.860300	-11.464000	22.060171	0.000955	20.713314
204.062217	-2.997700	3.859300	-11.568000	22.095170	0.000954	20.701884
205.060592	-2.990400	3.857600	-11.534000	22.070073	0.000953	20.710425
206.059021	-2.991300	3.857400	-11.537000	22.090606	0.000954	20.693521
207.063564	-2.988800	3.859300	-11.533000	22.092925	0.000954	20.708172
208.063601	-2.991900	3.858200	-11.542000	22.107404	0.000957	20.728359
209.061044	-2.985600	3.857000	-11.514000	22.108628	0.000956	20.708246
210.062052	-2.986700	3.856700	-11.518000	22.110473	0.000955	20.697765
211.065915	-2.986100	3.856900	-11.516000	22.123986	0.000956	20.719355
212.067427	-3.014000	3.855800	-11.618000	22.122018	0.000957	20.729713
213.061923	-2.993300	3.856900	-11.544000	22.128692	0.000957	20.725964
214.064711	-3.000900	3.855100	-11.567000	22.128599	0.000959	20.732035
215.065769	-3.003900	3.857300	-11.586000	22.125130	0.000957	20.709595
216.063726	-2.978100	3.856500	-11.484000	22.145495	0.000959	20.711966
217.063046	-2.984100	3.855700	-11.505000	22.137721	0.000959	20.720303
218.062853	-3.012800	3.855200	-11.613000	22.143349	0.000959	20.697488
219.065230	-2.994600	3.856000	-11.547000	22.145638	0.000957	20.714479
220.064395	-3.006900	3.855700	-11.593000	22.136393	0.000958	20.728932
221.064826	-2.987900	3.856900	-11.523000	22.157059	0.000960	20.729708
222.065878	-3.005700	3.854600	-11.584000	22.161518	0.000960	20.733225
223.063223	-2.996200	3.855100	-11.549000	22.166555	0.000960	20.715033
224.065862	-3.002200	3.853500	-11.568000	22.173106	0.000962	20.709738
225.066625	-2.992900	3.855800	-11.538000	22.186391	0.000961	20.714978
226.064474	-3.008500	3.853800	-11.593000	22.194486	0.000963	20.727825
227.064640	-2.985300	3.855100	-11.507000	22.180106	0.000964	20.723385
228.070761	-3.016100	3.853600	-11.622000	22.184990	0.000963	20.726852
229.066077	-2.998600	3.853600	-11.555000	22.209660	0.000964	20.734958
230.068546	-2.986700	3.854600	-11.511000	22.219783	0.000965	20.704788
231.064628	-3.009500	3.853000	-11.594000	22.210336	0.000965	20.717616
232.072807	-2.994500	3.853000	-11.537000	22.207889	0.000965	20.731762
233.070130	-2.997600	3.853900	-11.551000	22.223591	0.000963	20.720456
234.068985	-3.012800	3.852400	-11.605000	22.222639	0.000965	20.709070
235.067020	-2.999600	3.852200	-11.553000	22.225100	0.000967	20.724812
236.073446	-2.995000	3.851300	-11.534000	22.230807	0.000965	20.710611
237.069853	-3.003300	3.851700	-11.567000	22.238133	0.000967	20.718894
238.070712	-2.998600	3.850500	-11.545000	22.245852	0.000968	20.728047
239.066180	-2.993300	3.852900	-11.532000	22.234468	0.000970	20.719966
240.066115	-2.987500	3.852200	-11.508000	22.246972	0.000969	20.712571
241.069550	-2.998700	3.851800	-11.549000	22.268756	0.000970	20.710200
242.070144	-3.010000	3.851200	-11.591000	22.273861	0.000969	20.736177
243.068058	-2.987500	3.851800	-11.505000	22.255590	0.000972	20.742538
244.067138	-3.005800	3.850100	-11.572000	22.268474	0.000970	20.730309
245.071568	-3.020500	3.850800	-11.630000	22.283746	0.000972	20.745126
246.069984	-2.999700	3.849800	-11.546000	22.268267	0.000970	20.737214
247.069104	-3.014500	3.850300	-11.606000	22.299614	0.000971	20.727349
248.072120	-3.000700	3.850100	-11.551000	22.312202	0.000971	20.726204
249.069541	-2.991400	3.850600	-11.517000	22.316612	0.000972	20.739155
250.071556	-3.000100	3.849400	-11.546000	22.311773	0.000973	20.711548
251.068490	-2.987800	3.848800	-11.498000	22.356431	0.000973	20.735880
252.070336	-2.993600	3.849000	-11.521000	22.318826	0.000974	20.740424
253.078764	-2.972700	3.850200	-11.445000	22.330684	0.000974	20.730960
254.073690	-3.004200	3.849400	-11.563000	22.334995	0.000974	20.740493
255.082236	-2.999000	3.848000	-11.539000	22.326896	0.000976	20.747556
256.069694	-3.008500	3.847500	-11.573000	22.358626	0.000975	20.721007
257.070000	-2.967500	3.849500	-11.422000	22.359765	0.000976	20.734002
258.070279	-3.023300	3.846400	-11.628000	22.365842	0.000977	20.714008
259.072970	-2.992400	3.848600	-11.515000	22.366518	0.000978	20.735074
260.076426	-2.971600	3.848300	-11.434000	22.352105	0.000978	20.750040
261.079515	-2.995500	3.847800	-11.525000	22.341441	0.000980	20.711859
262.068279	-3.004900	3.847300	-11.560000	22.351508	0.000979	20.732846
263.074897	-2.997900	3.846700	-11.529000	22.370764	0.000980	20.740275
264.074496	-3.017400	3.846500	-11.605000	22.347843	0.000979	20.730599
265.069390	-2.974700	3.848300	-11.447000	22.376545	0.000980	20.734684
266.075686	-3.008600	3.846400	-11.570000	22.395189	0.000980	20.741026
267.074317	-3.011800	3.845700	-11.580000	22.420382	0.000982	20.710777
268.071972	-2.995600	3.846000	-11.520000	22.427060	0.000982	20.727897
269.075832	-3.009700	3.845500	-11.572000	22.438241	0.000981	20.732930
270.078615	-3.006100	3.845800	-11.560000	22.428022	0.000982	20.741663
271.069401	-2.997800	3.845400	-11.526000	22.450374	0.000984	20.746977
272.076354	-3.004800	3.845200	-11.553000	22.440801	0.000981	20.739287
