LabVIEW Measurement	
Writer_Version	2
Reader_Version	2
Separator	Tab
Decimal_Separator	.
Multi_Headings	No
X_Columns	One
Time_Pref	Absolute
Operator	admin
Description	Clolumns are: time, Current, Voltage, Power, Battery Temp, and Chamber Temp
Date	2024/08/16
Time	13:06:06.104549407958984375
***End_of_Header***	
	
Channels	6						
Samples	1	1	1	1	1	1	
Date	2024/09/16	2024/09/16	2024/09/16	2024/09/16	2024/09/16	2024/09/16	
Time	13:21:11.9687786102294921875	13:21:11.9787573814392089844	13:21:11.9923582077026367188	13:21:11.9502968788146972657	13:21:11.9502968788146972657	13:21:11.9502968788146972657	
X_Dimension	Time	Time	Time	Time	Time	Time	
X0	0.0000000000000000E+0	0.0000000000000000E+0	0.0000000000000000E+0	0.0000000000000000E+0	0.0000000000000000E+0	0.0000000000000000E+0	
Delta_X	1.000000	1.000000	1.000000	1.000000	1.000000	1.000000	
***End_of_Header***							
X_Value	Untitled	Untitled 1	Untitled 2	Untitled 3	Untitled 4	Untitled 5	Comment
0.000000	0.021210	4.090600	0.086767	20.985110	0.000948	20.707742
1.000585	-3.005000	3.909000	-11.745000	20.980117	0.000946	20.714603
2.001369	-3.001800	3.901800	-11.711000	20.944936	0.000947	20.722091
3.002942	-2.989500	3.897500	-11.651000	20.967988	0.000945	20.717645
4.003584	-2.984200	3.893200	-11.617000	20.977001	0.000945	20.713383
5.000752	-2.996800	3.890800	-11.659000	20.980536	0.000942	20.696528
6.000834	-3.009400	3.885200	-11.691000	20.983436	0.000943	20.733570
7.001633	-2.986400	3.885700	-11.602000	20.987198	0.000940	20.713150
8.003029	-3.016900	3.882200	-11.712000	20.966812	0.000940	20.730220
8.999374	-3.005800	3.879700	-11.660000	21.003889	0.000938	20.716568
9.999021	-2.997900	3.878900	-11.628000	20.987099	0.000938	20.715422
11.005036	-2.997900	3.876300	-11.619000	20.989316	0.000937	20.728071
12.005238	-3.021000	3.873500	-11.700000	21.000349	0.000939	20.717768
12.999438	-3.013300	3.873000	-11.669000	20.995504	0.000939	20.726673
14.002197	-3.008000	3.871300	-11.643000	21.015513	0.000939	20.717763
15.001338	-3.004500	3.870100	-11.626000	21.003883	0.000936	20.717510
16.008331	-3.005000	3.868700	-11.623000	21.022692	0.000935	20.715460
17.003242	-3.000800	3.867200	-11.602000	21.037043	0.000935	20.715115
18.001663	-2.984000	3.868100	-11.540000	21.019897	0.000935	20.731631
19.004051	-2.997100	3.867700	-11.591000	21.042578	0.000934	20.734403
20.004119	-3.026100	3.865000	-11.695000	21.062636	0.000933	20.726015
21.008107	-2.976800	3.865300	-11.505000	21.030277	0.000934	20.712615
22.007266	-2.961300	3.865400	-11.446000	21.023807	0.000933	20.721317
23.004918	-3.014000	3.861400	-11.636000	21.042172	0.000931	20.714081
24.004436	-2.988300	3.862800	-11.542000	21.063732	0.000933	20.706722
25.002164	-3.034300	3.860600	-11.713000	21.055396	0.000931	20.730628
26.004999	-3.032700	3.859500	-11.704000	21.075300	0.000934	20.732993
27.008613	-3.001200	3.860000	-11.583000	21.101625	0.000931	20.711907
28.005321	-3.015000	3.858900	-11.633000	21.097506	0.000931	20.716797
29.003417	-3.004700	3.858600	-11.593000	21.105762	0.000931	20.738332
30.009120	-2.996200	3.858300	-11.559000	21.119509	0.000929	20.714149
31.006656	-2.982000	3.858700	-11.506000	21.108784	0.000930	20.722863
32.005997	-2.987700	3.857400	-11.523000	21.106143	0.000929	20.708840
33.010155	-3.010100	3.856900	-11.608000	21.142335	0.000930	20.728449
34.009053	-3.023700	3.855200	-11.656000	21.141067	0.000928	20.720067
35.009025	-3.028100	3.854900	-11.671000	21.127247	0.000932	20.738960
36.009888	-2.994300	3.853800	-11.538000	21.151040	0.000929	20.730518
37.009555	-3.015500	3.853100	-11.617000	21.140217	0.000928	20.691714
38.008855	-3.008300	3.852300	-11.588000	21.150547	0.000928	20.726706
39.012124	-2.988800	3.854100	-11.517000	21.158778	0.000930	20.728775
40.007325	-2.990900	3.852600	-11.521000	21.181628	0.000929	20.710855
41.008837	-3.004400	3.852300	-11.572000	21.177289	0.000930	20.714100
42.009945	-3.010000	3.850400	-11.588000	21.191582	0.000929	20.721287
43.010258	-3.003300	3.850600	-11.564000	21.186916	0.000929	20.719938
44.008646	-3.000100	3.850000	-11.550000	21.211490	0.000928	20.712277
45.010683	-3.005000	3.849400	-11.566000	21.198243	0.000928	20.701395
46.008907	-3.003100	3.849100	-11.558000	21.199763	0.000928	20.713349
47.009370	-2.993100	3.849800	-11.522000	21.208572	0.000927	20.713626
48.013687	-3.004900	3.849400	-11.565000	21.238476	0.000931	20.723627
49.009753	-3.005600	3.849800	-11.570000	21.235534	0.000928	20.742970
50.012744	-2.991400	3.849800	-11.514000	21.246657	0.000928	20.717586
51.009256	-2.995600	3.847500	-11.525000	21.246035	0.000926	20.723128
52.010356	-2.985500	3.848400	-11.488000	21.257115	0.000928	20.735161
53.010527	-2.990000	3.847900	-11.505000	21.294083	0.000930	20.715720
54.014134	-3.016600	3.846200	-11.601000	21.281908	0.000929	20.701168
55.012649	-3.023800	3.846600	-11.630000	21.297124	0.000927	20.725401
56.013986	-2.996800	3.845300	-11.521000	21.312014	0.000928	20.709476
57.011374	-2.990500	3.844900	-11.497000	21.318950	0.000928	20.744867
58.012933	-2.996600	3.844700	-11.519000	21.315811	0.000927	20.752632
59.015970	-3.020200	3.844900	-11.611000	21.318753	0.000928	20.730444
60.012553	-3.003400	3.844800	-11.547000	21.343201	0.000930	20.731195
61.017986	-2.997300	3.844700	-11.522000	21.327032	0.000928	20.730666
62.014288	-3.008900	3.843600	-11.564000	21.369094	0.000926	20.743351
63.020593	-3.000200	3.842600	-11.527000	21.356668	0.000928	20.737557
64.014570	-3.006300	3.842500	-11.550000	21.385675	0.000928	20.724853
65.019122	-3.018500	3.841900	-11.595000	21.353301	0.000928	20.734188
66.018403	-3.003200	3.843200	-11.541000	21.393085	0.000927	20.750760
67.022334	-3.012400	3.842200	-11.573000	21.394735	0.000929	20.748616
68.019114	-2.998200	3.842500	-11.519000	21.385774	0.000928	20.739651
69.020002	-3.009700	3.842400	-11.564000	21.416830	0.000927	20.742274
70.018121	-2.971600	3.842700	-11.418000	21.407555	0.000928	20.705965
71.017188	-3.006700	3.840500	-11.546000	21.394710	0.000928	20.733892
72.027530	-3.000400	3.841000	-11.523000	21.427440	0.000929	20.730603
73.017920	-2.989600	3.841700	-11.483000	21.442998	0.000928	20.745697
74.024383	-3.016100	3.839200	-11.578000	21.440599	0.000930	20.750883
75.032094	-3.001000	3.839000	-11.520000	21.446636	0.000928	20.752656
76.023804	-3.021100	3.839400	-11.598000	21.436641	0.000930	20.739810
77.027449	-2.999400	3.837400	-11.509000	21.442272	0.000929	20.751609
78.021882	-3.027200	3.837000	-11.614000	21.474749	0.000930	20.728627
79.026819	-2.978200	3.838800	-11.432000	21.476417	0.000929	20.747366
80.024997	-3.035800	3.836100	-11.644000	21.494227	0.000929	20.723460
81.025816	-2.995700	3.837600	-11.495000	21.498417	0.000928	20.747569
82.021016	-3.009800	3.836100	-11.545000	21.490589	0.000930	20.734994
83.025462	-3.003600	3.836400	-11.522000	21.507821	0.000932	20.780213
84.020889	-3.019900	3.835600	-11.583000	21.511286	0.000930	20.731521
85.027423	-2.991500	3.835700	-11.473000	21.519065	0.000932	20.742151
86.021704	-2.989300	3.836500	-11.467000	21.524652	0.000931	20.770502
87.023695	-2.993500	3.835500	-11.480000	21.535047	0.000932	20.751979
88.026535	-2.997500	3.836300	-11.498000	21.530985	0.000929	20.752182
89.020936	-3.011700	3.834900	-11.549000	21.568542	0.000930	20.743770
90.023995	-3.015800	3.834600	-11.564000	21.566573	0.000930	20.743222
91.024116	-2.981200	3.835600	-11.433000	21.568038	0.000932	20.753223
92.025229	-2.984200	3.836000	-11.445000	21.587920	0.000931	20.744195
93.022183	-2.995400	3.833500	-11.482000	21.600264	0.000930	20.750384
94.029566	-2.983200	3.834100	-11.436000	21.607968	0.000934	20.748137
95.025776	-2.989100	3.833800	-11.459000	21.614823	0.000931	20.754049
96.025167	-2.999200	3.832200	-11.492000	21.610085	0.000933	20.736978
97.030840	-3.001000	3.833500	-11.503000	21.636693	0.000932	20.743217
98.027641	-2.991900	3.834000	-11.470000	21.625992	0.000933	20.772812
99.026018	-2.981200	3.832300	-11.424000	21.642354	0.000931	20.755046
100.027009	-2.979100	3.833400	-11.419000	21.653276	0.000934	20.766925
101.031971	-2.996100	3.831300	-11.478000	21.673520	0.000933	20.755416
102.024140	-2.999000	3.832200	-11.492000	21.636441	0.000935	20.750551
103.030511	-3.002100	3.831600	-11.502000	21.667933	0.000934	20.748876
104.027385	-3.000800	3.830300	-11.492000	21.674665	0.000935	20.763200
105.027933	-2.992200	3.830100	-11.460000	21.676363	0.000935	20.745458
106.031049	-3.021500	3.830200	-11.571000	21.692220	0.000935	20.764173
107.025568	-3.000600	3.830700	-11.492000	21.684486	0.000937	20.760226
108.029306	-3.001800	3.828500	-11.490000	21.737346	0.000935	20.758126
109.031562	-3.010700	3.829000	-11.527000	21.723232	0.000936	20.769605
110.040365	-3.018500	3.827900	-11.553000	21.741260	0.000936	20.761569
111.029829	-2.995700	3.830000	-11.472000	21.720783	0.000936	20.748662
112.036680	-2.996100	3.828300	-11.468000	21.746194	0.000939	20.764137
113.043361	-2.988300	3.828500	-11.439000	21.739088	0.000937	20.762240
114.029418	-2.994900	3.827900	-11.463000	21.727539	0.000937	20.772494
115.040810	-2.994800	3.827600	-11.462000	21.747259	0.000936	20.761410
116.034693	-3.024300	3.828500	-11.577000	21.764739	0.000939	20.750929
117.033343	-2.986500	3.829000	-11.434000	21.768702	0.000938	20.757265
118.034845	-2.985500	3.828900	-11.430000	21.779642	0.000938	20.752567
119.041450	-2.985800	3.828600	-11.430000	21.803249	0.000938	20.766713
120.033663	-2.976700	3.828200	-11.395000	21.821479	0.000936	20.767889
121.045157	-2.986800	3.828400	-11.433000	21.824069	0.000938	20.774275
122.041043	-3.009000	3.826000	-11.512000	21.831150	0.000939	20.788949
123.038369	-3.003200	3.826000	-11.488000	21.832640	0.000939	20.767680
124.034492	-3.027600	3.826600	-11.584000	21.858448	0.000939	20.787348
125.039514	-2.996400	3.826400	-11.463000	21.869190	0.000939	20.782927
126.034569	-2.998900	3.826300	-11.474000	21.872482	0.000940	20.769152
127.034711	-3.014700	3.825000	-11.530000	21.873448	0.000941	20.765378
128.036952	-2.996400	3.826200	-11.462000	21.920344	0.000941	20.789560
129.035578	-2.999900	3.825200	-11.474000	21.895816	0.000941	20.781129
130.040970	-3.012400	3.825300	-11.522000	21.906761	0.000940	20.755099
131.033673	-3.013500	3.824900	-11.524000	21.918603	0.000942	20.787817
132.035662	-3.002900	3.824200	-11.482000	21.938098	0.000943	20.771295
133.038598	-3.005500	3.823700	-11.491000	21.901052	0.000943	20.794904
134.029883	-3.004800	3.825300	-11.493000	21.916727	0.000940	20.771714
135.036575	-2.997000	3.823900	-11.458000	21.914077	0.000944	20.789450
136.032819	-3.031400	3.821500	-11.583000	21.943476	0.000943	20.777152
137.045619	-2.998100	3.824500	-11.465000	21.909414	0.000943	20.789524
138.036805	-2.987500	3.825000	-11.425000	21.951903	0.000946	20.768519
139.053252	-2.988300	3.823900	-11.426000	21.958899	0.000944	20.793065
140.047196	-3.019800	3.821000	-11.537000	21.974480	0.000946	20.783058
141.043009	-3.008400	3.822800	-11.499000	21.994153	0.000947	20.790423
142.041102	-2.990900	3.821500	-11.429000	22.002654	0.000946	20.797511
143.036424	-2.983700	3.823000	-11.406000	22.008332	0.000948	20.812204
144.048953	-2.993600	3.820800	-11.437000	22.012072	0.000947	20.803620
145.040350	-3.013000	3.820500	-11.510000	22.048770	0.000948	20.787252
146.044868	-2.964300	3.823100	-11.330000	22.032395	0.000946	20.795989
147.035709	-3.022700	3.820000	-11.545000	22.031645	0.000947	20.771056
148.042460	-3.002700	3.819900	-11.469000	22.052639	0.000949	20.793021
149.034832	-2.993000	3.820600	-11.434000	22.060710	0.000948	20.782135
150.040194	-3.005500	3.819800	-11.480000	22.085818	0.000952	20.783089
151.042852	-3.011900	3.820900	-11.507000	22.088112	0.000948	20.795817
152.036228	-2.977900	3.820000	-11.375000	22.089231	0.000949	20.791722
153.041568	-3.010000	3.818800	-11.493000	22.101956	0.000952	20.793082
154.042171	-2.982600	3.818000	-11.387000	22.108434	0.000950	20.804782
155.038124	-3.003600	3.818300	-11.467000	22.118325	0.000951	20.796667
156.039714	-3.003600	3.818800	-11.469000	22.109282	0.000950	20.768173
157.044311	-2.997800	3.819600	-11.449000	22.131868	0.000950	20.804061
158.039617	-3.008100	3.817400	-11.482000	22.142637	0.000951	20.784498
159.059412	-2.986800	3.818600	-11.404000	22.133393	0.000954	20.797527
160.038293	-3.004100	3.817400	-11.467000	22.155222	0.000952	20.776708
161.045654	-2.987200	3.818500	-11.405000	22.158641	0.000954	20.798624
162.040184	-3.001000	3.817200	-11.454000	22.169490	0.000953	20.817072
163.047969	-3.004600	3.816600	-11.467000	22.176594	0.000955	20.795261
164.044238	-2.993700	3.817600	-11.428000	22.165203	0.000955	20.813728
165.040202	-2.990100	3.815800	-11.409000	22.187714	0.000955	20.799282
166.044669	-2.990700	3.815900	-11.410000	22.172036	0.000956	20.803974
167.052251	-2.988100	3.816500	-11.403000	22.168543	0.000957	20.818494
168.044754	-3.003600	3.814800	-11.458000	22.181053	0.000956	20.807786
169.042654	-3.018300	3.814600	-11.513000	22.151549	0.000958	20.795790
170.047929	-2.992100	3.816200	-11.417000	22.180112	0.000958	20.801154
171.042451	-2.983200	3.816700	-11.385000	22.190733	0.000957	20.811314
172.044394	-3.012200	3.814100	-11.488000	22.207339	0.000957	20.776257
173.048289	-2.991200	3.814200	-11.408000	22.221417	0.000958	20.796042
174.046003	-3.012000	3.812900	-11.483000	22.205715	0.000962	20.809245
175.048659	-2.999800	3.813700	-11.440000	22.213224	0.000958	20.811547
176.043571	-2.984500	3.813700	-11.381000	22.219350	0.000960	20.811991
177.045959	-3.009600	3.813900	-11.477000	22.237499	0.000962	20.816886
178.050034	-3.022500	3.814000	-11.526000	22.270973	0.000964	20.803462
179.044658	-3.008500	3.812700	-11.469000	22.288869	0.000962	20.807631
180.047718	-3.015600	3.811400	-11.491000	22.290389	0.000962	20.807255
181.048193	-3.002300	3.813100	-11.447000	22.307485	0.000963	20.801615
182.049038	-3.014800	3.812700	-11.493000	22.307460	0.000962	20.809650
183.051585	-3.000300	3.814000	-11.441000	22.303771	0.000964	20.811646
184.048124	-2.999800	3.811300	-11.432000	22.307959	0.000965	20.822951
185.044837	-3.004400	3.811000	-11.448000	22.322121	0.000964	20.794933
186.048483	-3.017600	3.810900	-11.499000	22.338245	0.000964	20.797328
187.052280	-3.007700	3.811400	-11.461000	22.342230	0.000967	20.827397
188.053030	-2.977600	3.812400	-11.350000	22.344124	0.000965	20.824552
189.049649	-2.991500	3.811300	-11.399000	22.350483	0.000967	20.811479
190.055418	-3.005800	3.812000	-11.456000	22.359977	0.000968	20.806762
191.048394	-2.993500	3.810200	-11.404000	22.368101	0.000969	20.832914
192.049662	-2.967300	3.812100	-11.311000	22.376249	0.000969	20.818788
193.050331	-2.979400	3.810300	-11.351000	22.405931	0.000968	20.802519
194.049881	-2.982300	3.809400	-11.358000	22.404579	0.000969	20.809226
195.054829	-2.996300	3.809600	-11.414000	22.412555	0.000969	20.819109
196.052255	-3.001800	3.807900	-11.430000	22.422596	0.000968	20.808302
197.055047	-2.973800	3.810800	-11.331000	22.421926	0.000972	20.804786
198.050644	-2.995600	3.810400	-11.412000	22.448613	0.000972	20.830088
199.054561	-3.024800	3.808500	-11.520000	22.468227	0.000972	20.818437
200.052033	-3.018200	3.808400	-11.493000	22.463695	0.000974	20.822908
201.053927	-2.987700	3.809000	-11.379000	22.463942	0.000973	20.829318
202.054287	-3.000800	3.807200	-11.423000	22.465578	0.000974	20.820051
203.052642	-3.006700	3.808400	-11.450000	22.491274	0.000975	20.823973
204.052441	-2.994600	3.806800	-11.398000	22.527699	0.000974	20.842909
205.052865	-3.013900	3.806500	-11.471000	22.536626	0.000974	20.837151
206.055774	-2.983700	3.807500	-11.360000	22.517485	0.000976	20.830310
207.054262	-3.001200	3.806400	-11.423000	22.517480	0.000978	20.842632
208.053792	-3.006400	3.806700	-11.442000	22.493703	0.000978	20.837312
209.054903	-3.002600	3.806600	-11.428000	22.497373	0.000977	20.848099
210.059577	-3.018500	3.805400	-11.485000	22.473843	0.000980	20.844923
211.055644	-2.997600	3.805500	-11.407000	22.483189	0.000977	20.834843
212.056320	-3.003800	3.804900	-11.428000	22.506142	0.000978	20.834122
213.057936	-3.008300	3.804400	-11.444000	22.502822	0.000979	20.839806
214.058180	-2.998900	3.804800	-11.409000	22.499508	0.000979	20.839806
215.058404	-3.005900	3.804700	-11.435000	22.510176	0.000980	20.824412
216.057420	-2.983200	3.805300	-11.351000	22.531702	0.000982	20.845496
217.059783	-3.001500	3.804100	-11.416000	22.508055	0.000979	20.819443
218.064663	-2.984600	3.805400	-11.357000	22.521637	0.000981	20.832571
219.060977	-3.008000	3.802700	-11.437000	22.529784	0.000983	20.851635
220.061498	-3.012300	3.803700	-11.456000	22.537309	0.000982	20.835939
221.061082	-3.013900	3.803000	-11.460000	22.546753	0.000983	20.836863
222.059435	-3.002100	3.803600	-11.418000	22.550387	0.000984	20.849036
223.062387	-3.005600	3.802200	-11.427000	22.580035	0.000984	20.856444
224.062943	-3.019200	3.800700	-11.475000	22.577403	0.000984	20.852386
225.068870	-3.007500	3.801500	-11.432000	22.583902	0.000984	20.820490
226.064593	-3.003700	3.801700	-11.417000	22.616591	0.000984	20.851333
227.061864	-3.017700	3.801900	-11.472000	22.594396	0.000988	20.831474
228.066210	-2.989200	3.801300	-11.361000	22.607099	0.000985	20.841352
229.065153	-3.002900	3.800300	-11.410000	22.594095	0.000985	20.855354
230.064578	-3.012500	3.800000	-11.446000	22.607252	0.000987	20.846247
231.060404	-2.998800	3.801000	-11.397000	22.633787	0.000990	20.858599
232.064252	-3.003500	3.800100	-11.412000	22.634936	0.000987	20.835569
233.062968	-2.982600	3.801000	-11.336000	22.641159	0.000988	20.830422
234.063837	-2.999500	3.800000	-11.397000	22.653344	0.000989	20.851161
235.069163	-3.000800	3.800000	-11.402000	22.671480	0.000990	20.832817
236.066218	-2.977700	3.799700	-11.313000	22.672003	0.000991	20.813427
237.077925	-3.021800	3.797700	-11.473000	22.685128	0.000990	20.835108
238.067236	-3.010600	3.799200	-11.437000	22.671302	0.000992	20.845915
239.068042	-2.978200	3.799800	-11.315000	22.697841	0.000991	20.816074
240.066905	-3.018900	3.798000	-11.464000	22.699384	0.000993	20.817146
241.068112	-2.989200	3.799400	-11.357000	22.682294	0.000993	20.838907
242.065285	-2.974900	3.798700	-11.300000	22.699458	0.000993	20.819116
243.066381	-2.995800	3.798300	-11.377000	22.686081	0.000995	20.808562
244.068379	-3.012300	3.797600	-11.438000	22.672249	0.000995	20.820311
245.067807	-2.997300	3.797700	-11.381000	22.675721	0.000996	20.831850
246.069446	-3.029900	3.796100	-11.501000	22.709921	0.000996	20.821536
247.068454	-2.987200	3.797800	-11.344000	22.689671	0.000997	20.814529
248.068705	-2.999400	3.797200	-11.388000	22.722081	0.000996	20.814276
249.069614	-3.016500	3.796300	-11.450000	22.732421	0.000998	20.828427
250.069464	-2.997300	3.796900	-11.379000	22.727583	0.000998	20.826900
251.067180	-2.993600	3.797200	-11.366000	22.738998	0.000998	20.793765
252.068731	-2.992900	3.795800	-11.360000	22.751330	0.001000	20.810385
253.069415	-2.980700	3.796400	-11.315000	22.758135	0.000998	20.805821
254.068884	-3.021400	3.794300	-11.463000	22.766901	0.001000	20.806068
255.069802	-2.997600	3.795300	-11.375000	22.780658	0.000999	20.820797
256.072435	-3.002200	3.796200	-11.397000	22.794951	0.001001	20.794337
257.071936	-3.008300	3.794500	-11.414000	22.802283	0.000999	20.801683
258.070729	-2.987900	3.794700	-11.337000	22.819175	0.001001	20.810070
259.072464	-3.010500	3.793700	-11.418000	22.838723	0.001002	20.815428
260.073514	-3.006800	3.794000	-11.407000	22.831807	0.001002	20.801387
261.072011	-2.980400	3.794200	-11.307000	22.832975	0.001002	20.816782
262.073472	-2.997000	3.791500	-11.362000	22.866782	0.001003	20.793277
263.071385	-3.006500	3.792700	-11.402000	22.866757	0.001005	20.813641
264.074799	-3.020600	3.790500	-11.448000	22.885979	0.001004	20.811086
265.072162	-3.023200	3.791300	-11.461000	22.897442	0.001003	20.795069
266.071981	-2.992500	3.792600	-11.349000	22.889223	0.001004	20.803432
267.072432	-3.006400	3.792000	-11.399000	22.892665	0.001004	20.784594
268.074956	-3.022300	3.789900	-11.453000	22.908308	0.001007	20.795999
269.070451	-3.004700	3.791600	-11.391000	22.911823	0.001005	20.783399
270.075494	-3.006100	3.790500	-11.393000	22.926790	0.001008	20.799817
271.076745	-2.993600	3.789500	-11.344000	22.942881	0.001008	20.801239
272.073742	-2.987200	3.790500	-11.322000	22.914638	0.001008	20.806134
