LabVIEW Measurement	
Writer_Version	2
Reader_Version	2
Separator	Tab
Decimal_Separator	.
Multi_Headings	No
X_Columns	One
Time_Pref	Absolute
Operator	admin
Description	Clolumns are: time, Current, Voltage, Power, Battery Temp, and Chamber Temp
Date	2024/08/16
Time	13:06:06.104549407958984375
***End_of_Header***	
	
Channels	6						
Samples	1	1	1	1	1	1	
Date	2024/08/31	2024/08/31	2024/08/31	2024/08/31	2024/08/31	2024/08/31	
Time	12:42:28.9631261825561523438	12:42:28.9710216522216796875	12:42:28.9780135154724121094	12:42:28.9438047409057617188	12:42:28.9438047409057617188	12:42:28.9438047409057617188	
X_Dimension	Time	Time	Time	Time	Time	Time	
X0	0.0000000000000000E+0	0.0000000000000000E+0	0.0000000000000000E+0	0.0000000000000000E+0	0.0000000000000000E+0	0.0000000000000000E+0	
Delta_X	1.000000	1.000000	1.000000	1.000000	1.000000	1.000000	
***End_of_Header***							
X_Value	Untitled	Untitled 1	Untitled 2	Untitled 3	Untitled 4	Untitled 5	Comment
0.000000	0.028923	4.110500	0.118930	21.047037	0.000948	20.732224
1.000276	-3.013900	3.944100	-11.885000	21.019885	0.000949	20.743948
2.001474	-3.015100	3.937500	-11.870000	21.035758	0.000947	20.738012
2.997942	-3.013100	3.931200	-11.843000	21.038030	0.000945	20.733172
4.002962	-2.979600	3.928300	-11.704000	21.030764	0.000945	20.734914
4.999772	-3.005300	3.924700	-11.794000	21.017564	0.000946	20.737359
6.000211	-2.999700	3.921400	-11.762000	21.027446	0.000944	20.733018
7.009076	-3.015200	3.919400	-11.816000	21.043939	0.000943	20.747619
8.000911	-3.003400	3.915300	-11.756000	21.056289	0.000943	20.754756
9.000669	-2.995500	3.914600	-11.725000	21.049351	0.000944	20.734064
10.003455	-2.993400	3.913300	-11.713000	21.047128	0.000940	20.752705
11.001727	-3.005100	3.910400	-11.750000	21.056216	0.000939	20.745673
12.000825	-2.982000	3.909800	-11.658000	21.061104	0.000938	20.741553
13.005659	-2.991100	3.907800	-11.687000	21.060826	0.000938	20.753604
14.002326	-2.999400	3.907200	-11.718000	21.060721	0.000938	20.727893
15.000566	-2.996200	3.905300	-11.700000	21.051493	0.000937	20.741423
16.005219	-3.002200	3.902900	-11.716000	21.081080	0.000937	20.737826
17.003716	-2.985500	3.903300	-11.654000	21.060026	0.000937	20.739526
18.001839	-3.005100	3.900900	-11.722000	21.086129	0.000934	20.731497
19.003973	-2.979100	3.899800	-11.617000	21.085754	0.000937	20.740130
20.002871	-3.019000	3.898400	-11.768000	21.090863	0.000934	20.737180
21.002653	-3.026500	3.898700	-11.799000	21.085255	0.000934	20.752434
22.004866	-2.999000	3.897600	-11.687000	21.115365	0.000934	20.748413
23.004404	-2.992500	3.897000	-11.661000	21.113574	0.000931	20.751363
24.003082	-3.010700	3.895400	-11.727000	21.109634	0.000932	20.773975
25.002180	-3.010300	3.895200	-11.724000	21.120105	0.000930	20.744145
26.004658	-2.982300	3.893500	-11.610000	21.126088	0.000930	20.742069
27.004980	-2.979400	3.894000	-11.601000	21.127191	0.000930	20.749336
28.007231	-2.989000	3.893200	-11.635000	21.137749	0.000930	20.771278
29.007866	-2.979700	3.892600	-11.598000	21.133729	0.000929	20.759670
30.005707	-2.987500	3.891800	-11.626000	21.172973	0.000930	20.775693
31.005766	-3.006700	3.890800	-11.697000	21.153693	0.000928	20.754984
32.008589	-3.010200	3.890000	-11.707000	21.167636	0.000929	20.748543
33.004978	-3.005700	3.890200	-11.692000	21.166344	0.000929	20.770958
34.006762	-3.023500	3.887300	-11.752000	21.170308	0.000928	20.756431
35.010112	-3.002200	3.888500	-11.672000	21.188991	0.000926	20.766111
36.006040	-2.990100	3.888000	-11.624000	21.189366	0.000926	20.764116
37.008581	-3.013300	3.886000	-11.709000	21.199590	0.000926	20.775767
38.007273	-2.991800	3.889200	-11.634000	21.205506	0.000925	20.770305
39.007437	-3.022000	3.885500	-11.742000	21.209397	0.000928	20.760920
40.007843	-3.005900	3.885900	-11.679000	21.224195	0.000924	20.760551
41.008086	-3.013500	3.885900	-11.709000	21.239910	0.000925	20.769160
42.008695	-2.997200	3.886300	-11.647000	21.244945	0.000926	20.739108
43.008387	-2.986400	3.886000	-11.604000	21.236593	0.000927	20.764893
44.008002	-3.009200	3.883500	-11.685000	21.240704	0.000924	20.777540
45.007792	-2.993500	3.884100	-11.626000	21.261288	0.000924	20.765416
46.010055	-3.015100	3.882100	-11.702000	21.262278	0.000924	20.777312
47.009865	-2.993700	3.882900	-11.623000	21.261386	0.000922	20.777368
48.010784	-2.967600	3.883300	-11.522000	21.250166	0.000921	20.772307
49.010005	-3.003100	3.882000	-11.656000	21.277354	0.000923	20.760151
50.007226	-2.996600	3.884100	-11.638000	21.266983	0.000921	20.759733
51.010767	-2.986900	3.882600	-11.596000	21.281995	0.000921	20.761475
52.012522	-2.986500	3.881900	-11.592000	21.312998	0.000923	20.782535
53.011948	-2.999100	3.880100	-11.636000	21.305194	0.000921	20.782788
54.015362	-2.997100	3.880900	-11.629000	21.307090	0.000920	20.787529
55.012304	-2.992700	3.880200	-11.610000	21.313767	0.000920	20.786149
56.011426	-3.019800	3.880300	-11.717000	21.323604	0.000922	20.792671
57.014122	-2.983800	3.879300	-11.574000	21.324422	0.000921	20.788274
58.014669	-3.000700	3.877600	-11.635000	21.346549	0.000920	20.775798
59.013272	-2.988700	3.879300	-11.592000	21.336916	0.000920	20.779911
60.016188	-3.014400	3.876500	-11.684000	21.351910	0.000919	20.785903
61.014052	-3.009700	3.877100	-11.667000	21.331629	0.000920	20.786476
62.013259	-2.987100	3.878300	-11.583000	21.369863	0.000918	20.778735
63.014853	-3.006600	3.877100	-11.655000	21.360065	0.000918	20.784105
64.013902	-3.008000	3.876600	-11.658000	21.379927	0.000919	20.772683
65.015664	-3.001900	3.876400	-11.635000	21.398754	0.000919	20.801477
66.014492	-2.992400	3.876800	-11.599000	21.398533	0.000918	20.777547
67.019682	-3.027600	3.874100	-11.727000	21.415741	0.000916	20.792394
68.016584	-3.002000	3.875900	-11.634000	21.414417	0.000916	20.786802
69.013741	-3.007000	3.875500	-11.653000	21.422653	0.000918	20.797887
70.017175	-3.001200	3.874300	-11.626000	21.428740	0.000917	20.782640
71.013819	-3.015800	3.874600	-11.684000	21.468065	0.000921	20.798755
72.013855	-3.015900	3.875800	-11.689000	21.447713	0.000917	20.794986
73.018553	-3.006300	3.873500	-11.643000	21.461733	0.000919	20.808065
74.016823	-3.006900	3.875100	-11.650000	21.444722	0.000916	20.794838
75.015070	-3.041600	3.873300	-11.780000	21.466896	0.000917	20.786679
76.018256	-3.010000	3.874500	-11.661000	21.475296	0.000917	20.776118
77.017853	-3.014800	3.873600	-11.676000	21.478312	0.000917	20.807110
78.015419	-2.995900	3.874300	-11.606000	21.494872	0.000916	20.804241
79.015234	-2.998800	3.873700	-11.616000	21.479031	0.000918	20.808304
80.014910	-3.011000	3.872100	-11.657000	21.511303	0.000917	20.806457
81.014915	-3.005100	3.873900	-11.641000	21.520984	0.000918	20.819937
82.015563	-3.011400	3.871600	-11.658000	21.519064	0.000915	20.789092
83.019144	-2.999500	3.871600	-11.612000	21.516067	0.000917	20.785619
84.016208	-2.996100	3.871300	-11.598000	21.533452	0.000917	20.797325
85.016007	-2.972700	3.871300	-11.508000	21.551033	0.000917	20.826297
86.017692	-3.003300	3.871400	-11.625000	21.540732	0.000915	20.821205
87.015317	-2.983900	3.872800	-11.556000	21.544522	0.000917	20.821679
88.014354	-2.986700	3.871500	-11.562000	21.559882	0.000917	20.811919
89.019019	-2.986500	3.871200	-11.561000	21.552707	0.000916	20.803317
90.017564	-3.017200	3.869200	-11.673000	21.570861	0.000917	20.797301
91.016063	-3.002100	3.870900	-11.619000	21.588294	0.000917	20.795780
92.017698	-3.001000	3.869800	-11.612000	21.590183	0.000914	20.800989
93.016280	-2.991900	3.871000	-11.580000	21.578891	0.000919	20.793483
94.017686	-2.995300	3.869000	-11.588000	21.605352	0.000914	20.798151
95.018417	-3.000800	3.868100	-11.605000	21.599217	0.000917	20.801494
96.021152	-2.975200	3.870100	-11.514000	21.614804	0.000916	20.778211
97.018106	-2.972900	3.869600	-11.503000	21.612115	0.000917	20.799703
98.018460	-3.007000	3.867800	-11.629000	21.616078	0.000916	20.786599
99.021544	-2.984500	3.868900	-11.546000	21.636410	0.000918	20.786556
100.019983	-3.001600	3.868300	-11.610000	21.641794	0.000917	20.808065
101.022197	-2.983400	3.866800	-11.536000	21.630878	0.000916	20.793823
102.019058	-2.984400	3.867200	-11.540000	21.656580	0.000915	20.775447
103.018988	-2.975200	3.867800	-11.507000	21.626165	0.000916	20.779623
104.021588	-2.988400	3.867700	-11.557000	21.643099	0.000917	20.788509
105.022577	-3.000000	3.866600	-11.598000	21.652273	0.000915	20.786311
106.025744	-2.994800	3.867200	-11.580000	21.672327	0.000915	20.786465
107.021348	-2.997500	3.866600	-11.589000	21.665466	0.000918	20.776279
108.022388	-2.997600	3.866200	-11.588000	21.679311	0.000917	20.782549
109.025991	-2.988300	3.867100	-11.554000	21.690812	0.000917	20.785049
110.024035	-3.003100	3.865300	-11.606000	21.681354	0.000918	20.784119
111.029618	-3.002400	3.866100	-11.607000	21.704545	0.000916	20.793577
112.029674	-3.003700	3.865000	-11.608000	21.703443	0.000917	20.778724
113.025519	-2.986500	3.865000	-11.542000	21.729434	0.000918	20.769648
114.030869	-2.981400	3.865900	-11.525000	21.711578	0.000918	20.780227
115.026685	-3.010500	3.865200	-11.635000	21.715368	0.000917	20.779753
116.027756	-3.003200	3.865000	-11.606000	21.745584	0.000918	20.767794
117.028599	-2.990500	3.864700	-11.557000	21.722850	0.000916	20.768275
118.028270	-3.002200	3.863600	-11.599000	21.719934	0.000917	20.777684
119.028944	-2.974200	3.865200	-11.495000	21.733747	0.000918	20.764956
120.030760	-3.008600	3.863500	-11.623000	21.739056	0.000918	20.757941
121.028735	-3.000800	3.863400	-11.593000	21.753073	0.000920	20.785246
122.028436	-3.000100	3.863100	-11.588000	21.743106	0.000916	20.765788
123.027552	-2.998200	3.863000	-11.580000	21.774687	0.000917	20.758514
124.028339	-2.998100	3.862300	-11.578000	21.780828	0.000917	20.774144
125.029604	-2.983200	3.864400	-11.527000	21.778810	0.000918	20.769753
126.031016	-2.998400	3.862700	-11.580000	21.769237	0.000917	20.763017
127.034451	-3.001900	3.862700	-11.594000	21.793749	0.000919	20.771429
128.031315	-2.988900	3.860800	-11.539000	21.786821	0.000917	20.758331
129.031315	-2.993000	3.861100	-11.556000	21.810754	0.000920	20.755732
130.035828	-3.001900	3.860600	-11.588000	21.801508	0.000919	20.756909
131.035331	-3.008400	3.861300	-11.616000	21.806122	0.000920	20.762476
132.032139	-2.994900	3.860600	-11.561000	21.828528	0.000920	20.745546
133.043181	-2.987100	3.861800	-11.534000	21.792482	0.000920	20.759255
134.036520	-3.010700	3.859600	-11.618000	21.817941	0.000919	20.735423
135.032956	-2.980400	3.860500	-11.504000	21.811210	0.000919	20.737221
136.044158	-3.009400	3.859600	-11.614000	21.810902	0.000921	20.757302
137.035676	-2.993600	3.860800	-11.556000	21.826019	0.000918	20.744457
138.034663	-2.987200	3.860600	-11.532000	21.839922	0.000920	20.753157
139.038218	-2.994900	3.860300	-11.560000	21.858330	0.000920	20.746926
140.043398	-2.994800	3.858500	-11.554000	21.856509	0.000919	20.751742
141.037816	-2.989800	3.858100	-11.534000	21.861517	0.000921	20.744426
142.035327	-2.982500	3.860600	-11.511000	21.864040	0.000922	20.748373
143.042400	-2.971900	3.859500	-11.469000	21.861074	0.000921	20.746828
144.035549	-2.989300	3.858200	-11.533000	21.872419	0.000922	20.745381
145.043063	-3.014600	3.858600	-11.630000	21.873588	0.000922	20.745128
146.034963	-3.020800	3.857600	-11.652000	21.903708	0.000921	20.740190
147.036317	-2.997300	3.859200	-11.566000	21.900768	0.000921	20.732978
148.040584	-3.023900	3.857900	-11.665000	21.897199	0.000921	20.744580
149.041782	-2.995100	3.857200	-11.552000	21.939537	0.000922	20.756613
150.040880	-2.986800	3.857700	-11.520000	21.914554	0.000925	20.747727
151.037589	-3.006900	3.856900	-11.596000	21.937119	0.000923	20.741865
152.038071	-3.016800	3.857000	-11.635000	21.932463	0.000923	20.732462
153.038977	-3.021800	3.856100	-11.652000	21.947565	0.000923	20.731932
154.036401	-2.994700	3.856800	-11.549000	21.925210	0.000924	20.721408
155.042771	-3.009800	3.855500	-11.603000	21.929849	0.000924	20.737432
156.042322	-3.005000	3.856800	-11.588000	21.950438	0.000924	20.728170
157.040002	-3.020700	3.856200	-11.646000	21.925259	0.000923	20.735209
158.042954	-3.009000	3.854800	-11.598000	21.953108	0.000926	20.746965
159.043680	-2.994700	3.855700	-11.545000	21.951059	0.000925	20.731162
160.043087	-2.981000	3.856200	-11.495000	21.948028	0.000926	20.744724
161.046864	-3.019900	3.854900	-11.640000	21.955231	0.000928	20.717794
162.045302	-3.000200	3.853600	-11.561000	21.955778	0.000926	20.728300
163.052949	-3.003500	3.854800	-11.576000	21.956701	0.000926	20.719266
164.045366	-3.002300	3.854800	-11.570000	21.958049	0.000927	20.729624
165.054687	-2.992200	3.853900	-11.531000	21.962834	0.000927	20.717819
166.046239	-3.000900	3.853000	-11.561000	21.982255	0.000929	20.740579
167.047893	-3.010700	3.854000	-11.602000	21.977869	0.000927	20.742827
168.044615	-2.986300	3.854100	-11.509000	21.975101	0.000928	20.718718
169.046176	-2.962700	3.856100	-11.424000	21.999233	0.000929	20.730548
170.042959	-2.996800	3.854300	-11.548000	22.015190	0.000926	20.739410
171.044311	-2.994500	3.853900	-11.538000	22.011997	0.000930	20.727204
172.045426	-2.995300	3.853300	-11.540000	22.016464	0.000929	20.729304
173.047632	-3.011600	3.853100	-11.603000	22.030199	0.000928	20.740210
174.047738	-2.999400	3.852200	-11.553000	22.037009	0.000930	20.734699
175.046015	-2.972900	3.854100	-11.456000	22.053815	0.000929	20.718805
176.047219	-2.984100	3.853500	-11.498000	22.039770	0.000931	20.708064
177.048664	-2.996700	3.851400	-11.541000	22.038430	0.000930	20.723793
178.051042	-2.980300	3.853400	-11.482000	22.043886	0.000932	20.713607
179.047363	-2.985500	3.851800	-11.498000	22.024873	0.000931	20.719705
180.048508	-2.986500	3.851700	-11.503000	22.027112	0.000931	20.701555
181.049771	-2.982000	3.851600	-11.485000	22.030059	0.000931	20.702135
182.049724	-2.975100	3.851200	-11.457000	22.072816	0.000933	20.718861
183.048844	-2.987100	3.851800	-11.504000	22.074212	0.000933	20.730217
184.051486	-2.998200	3.851600	-11.546000	22.076107	0.000933	20.710776
185.048398	-3.008400	3.850100	-11.582000	22.102433	0.000932	20.718166
186.050272	-2.998300	3.850300	-11.543000	22.087284	0.000934	20.716750
187.050484	-2.996300	3.850600	-11.536000	22.097827	0.000934	20.705493
188.051538	-2.975900	3.849900	-11.455000	22.110916	0.000936	20.720969
189.050772	-2.990700	3.849600	-11.511000	22.112565	0.000933	20.716455
190.050451	-3.003400	3.850000	-11.562000	22.112565	0.000936	20.723568
191.051747	-3.016100	3.847500	-11.602000	22.127819	0.000935	20.721770
192.051216	-3.014400	3.848400	-11.600000	22.130464	0.000936	20.720625
193.050343	-3.003300	3.848400	-11.557000	22.139143	0.000937	20.710821
194.051992	-2.984600	3.848800	-11.487000	22.129376	0.000937	20.719536
195.051408	-3.012700	3.847300	-11.590000	22.151863	0.000939	20.708858
196.052133	-3.006700	3.847500	-11.567000	22.171028	0.000937	20.694379
197.053147	-2.992900	3.848700	-11.516000	22.161311	0.000938	20.709307
198.051712	-3.022800	3.847000	-11.626000	22.150597	0.000939	20.697157
199.052293	-2.993000	3.848500	-11.518000	22.169116	0.000938	20.719493
200.055197	-2.992300	3.847000	-11.511000	22.171638	0.000938	20.699258
201.052911	-2.983000	3.848500	-11.479000	22.183429	0.000938	20.708692
202.054023	-2.988900	3.847400	-11.498000	22.176756	0.000941	20.693476
203.052711	-2.987700	3.847000	-11.493000	22.219192	0.000940	20.706093
204.053400	-3.003500	3.845400	-11.548000	22.201277	0.000940	20.702855
205.054847	-3.000100	3.847200	-11.541000	22.237595	0.000940	20.701759
206.054512	-3.019300	3.845400	-11.608000	22.222742	0.000941	20.695422
207.062623	-2.978900	3.846600	-11.457000	22.219606	0.000942	20.709353
208.057335	-3.002900	3.844900	-11.545000	22.253629	0.000944	20.696476
209.057858	-2.984200	3.846200	-11.477000	22.245456	0.000942	20.707733
210.060750	-2.994400	3.845100	-11.513000	22.227958	0.000945	20.703016
211.059847	-3.004100	3.845000	-11.550000	22.242842	0.000945	20.690891
212.056861	-2.986300	3.847100	-11.487000	22.234139	0.000945	20.707783
213.059824	-3.022600	3.843500	-11.616000	22.234416	0.000945	20.685299
214.057549	-3.005400	3.844400	-11.552000	22.224693	0.000944	20.685994
215.058300	-3.003300	3.844600	-11.546000	22.232547	0.000945	20.699549
216.061278	-3.010600	3.844300	-11.573000	22.246034	0.000944	20.685077
217.058841	-3.002300	3.843800	-11.539000	22.241022	0.000944	20.687171
218.060147	-2.983500	3.844400	-11.468000	22.277085	0.000947	20.700996
219.065089	-3.012800	3.843600	-11.579000	22.262454	0.000946	20.697726
220.060013	-3.006500	3.843500	-11.554000	22.250124	0.000946	20.690122
221.060868	-3.002300	3.842500	-11.535000	22.284360	0.000946	20.683623
222.062835	-3.021000	3.841000	-11.602000	22.269017	0.000946	20.677269
223.062207	-3.005000	3.842800	-11.546000	22.276440	0.000948	20.695134
224.063353	-2.985300	3.843700	-11.474000	22.291796	0.000949	20.670205
225.063631	-2.984000	3.844800	-11.472000	22.303635	0.000948	20.698657
226.077151	-3.010800	3.841300	-11.565000	22.289306	0.000949	20.695215
227.063453	-2.976600	3.843300	-11.439000	22.272560	0.000950	20.689826
228.064896	-2.991800	3.841900	-11.493000	22.320534	0.000949	20.674800
229.066622	-3.007900	3.842000	-11.555000	22.314386	0.000951	20.673384
230.065646	-3.010400	3.842200	-11.565000	22.319808	0.000950	20.701102
231.065286	-2.996700	3.841500	-11.511000	22.341573	0.000952	20.684487
232.062227	-2.980500	3.841300	-11.448000	22.341720	0.000951	20.686057
233.065107	-3.003400	3.840400	-11.532000	22.359370	0.000952	20.689981
234.064734	-2.998700	3.841300	-11.518000	22.347932	0.000952	20.675681
235.064471	-3.010900	3.841200	-11.565000	22.361411	0.000954	20.675903
236.064903	-2.987900	3.840900	-11.474000	22.356757	0.000955	20.696848
237.065904	-3.020100	3.839900	-11.595000	22.371990	0.000954	20.676538
238.064753	-2.996200	3.840200	-11.505000	22.408263	0.000953	20.682517
239.066654	-2.999900	3.839800	-11.518000	22.398106	0.000954	20.688941
240.070727	-2.998400	3.838800	-11.509000	22.426736	0.000955	20.670195
241.068157	-2.986200	3.840100	-11.465000	22.437208	0.000956	20.693487
242.070039	-3.018400	3.839300	-11.586000	22.432856	0.000954	20.675376
243.065477	-2.988700	3.839200	-11.474000	22.416628	0.000957	20.693265
244.070933	-3.009600	3.838400	-11.551000	22.425575	0.000956	20.673300
245.068344	-3.005200	3.839000	-11.536000	22.431755	0.000958	20.682808
246.072371	-3.015900	3.837900	-11.572000	22.417704	0.000955	20.677747
247.071074	-3.006100	3.837500	-11.535000	22.427199	0.000958	20.676349
248.069511	-2.983000	3.839200	-11.451000	22.432309	0.000958	20.673879
249.070454	-2.988400	3.837300	-11.466000	22.452398	0.000960	20.671712
250.069255	-2.992200	3.837600	-11.482000	22.477842	0.000960	20.668744
251.070557	-3.009200	3.836200	-11.542000	22.475107	0.000958	20.666478
252.075286	-3.009700	3.836300	-11.544000	22.476324	0.000960	20.668645
253.076988	-3.034600	3.834900	-11.635000	22.505180	0.000959	20.683795
254.071973	-3.004500	3.836100	-11.525000	22.475710	0.000960	20.651908
255.075301	-2.991400	3.836600	-11.475000	22.462551	0.000962	20.671923
256.075853	-3.005800	3.836000	-11.529000	22.450788	0.000961	20.659193
257.073896	-3.016300	3.836200	-11.570000	22.473792	0.000963	20.660419
258.080288	-3.002900	3.835000	-11.515000	22.488132	0.000963	20.678101
259.076038	-2.991500	3.835400	-11.472000	22.491218	0.000962	20.677399
260.072356	-3.006200	3.832800	-11.521000	22.499667	0.000963	20.648398
261.078354	-3.011100	3.834000	-11.543000	22.480132	0.000965	20.659657
262.074865	-2.984100	3.834700	-11.442000	22.484948	0.000963	20.654047
263.078053	-2.976100	3.834300	-11.410000	22.516816	0.000966	20.674585
264.077574	-3.006200	3.833100	-11.521000	22.504987	0.000966	20.661315
265.072263	-3.000500	3.833700	-11.502000	22.528887	0.000967	20.662017
266.073725	-3.003200	3.833700	-11.513000	22.529466	0.000967	20.645999
267.077098	-2.980200	3.834700	-11.428000	22.564917	0.000967	20.662066
268.076595	-2.999900	3.831600	-11.493000	22.562434	0.000970	20.661002
269.074142	-3.009500	3.832700	-11.533000	22.571632	0.000968	20.643660
270.079027	-3.000100	3.832200	-11.496000	22.603270	0.000970	20.659228
271.074375	-3.001900	3.832700	-11.504000	22.558376	0.000970	20.654567
272.076672	-2.983100	3.833500	-11.434000	22.559201	0.000969	20.656815
