LabVIEW Measurement	
Writer_Version	2
Reader_Version	2
Separator	Tab
Decimal_Separator	.
Multi_Headings	No
X_Columns	One
Time_Pref	Absolute
Operator	admin
Description	Clolumns are: time, Current, Voltage, Power, Battery Temp, and Chamber Temp
Date	2024/08/16
Time	13:06:06.104549407958984375
***End_of_Header***	
	
Channels	6						
Samples	1	1	1	1	1	1	
Date	2024/09/15	2024/09/15	2024/09/15	2024/09/15	2024/09/15	2024/09/15	
Time	11:11:47.1372880935668945312	11:11:47.1442790031433105469	11:11:47.1522774696350097656	11:11:47.1159081459045410156	11:11:47.1159081459045410156	11:11:47.1159081459045410156	
X_Dimension	Time	Time	Time	Time	Time	Time	
X0	0.0000000000000000E+0	0.0000000000000000E+0	0.0000000000000000E+0	0.0000000000000000E+0	0.0000000000000000E+0	0.0000000000000000E+0	
Delta_X	1.000000	1.000000	1.000000	1.000000	1.000000	1.000000	
***End_of_Header***							
X_Value	Untitled	Untitled 1	Untitled 2	Untitled 3	Untitled 4	Untitled 5	Comment
0.000000	0.015696	4.090600	0.064096	21.004737	0.000940	20.789964
1.001431	-2.987600	3.912000	-11.687000	21.004662	0.000937	20.791786
1.995196	-3.002200	3.903300	-11.718000	21.017036	0.000940	20.812222
2.998581	-2.988200	3.899200	-11.650000	21.009279	0.000937	20.791662
3.999863	-2.995600	3.894200	-11.664000	21.013270	0.000938	20.803714
4.998483	-3.023500	3.889600	-11.759000	21.011749	0.000936	20.806934
5.998650	-3.001800	3.889100	-11.672000	21.009904	0.000934	20.800822
6.995414	-3.009400	3.886300	-11.694000	21.005037	0.000931	20.795480
7.996714	-2.995300	3.884400	-11.633000	20.996903	0.000931	20.807733
8.994586	-2.990100	3.882900	-11.609000	21.008532	0.000931	20.804665
9.997362	-3.012000	3.879800	-11.685000	20.980462	0.000930	20.785599
10.999016	-3.013700	3.878400	-11.687000	21.020236	0.000930	20.782233
12.001132	-2.970100	3.876700	-11.514000	21.019814	0.000929	20.798880
12.997864	-3.008200	3.874300	-11.653000	21.011457	0.000928	20.787676
14.000226	-2.988600	3.874200	-11.576000	21.019967	0.000928	20.809465
15.005679	-3.002100	3.873600	-11.628000	21.021342	0.000926	20.788554
16.002306	-3.009600	3.871300	-11.649000	21.029128	0.000926	20.781643
17.000738	-3.010000	3.869300	-11.644000	21.019274	0.000925	20.798814
18.002873	-2.996500	3.870900	-11.597000	21.032749	0.000925	20.768669
19.006180	-3.013000	3.868200	-11.654000	21.053011	0.000926	20.785142
20.004360	-2.986400	3.868500	-11.551000	21.048148	0.000925	20.796874
21.001687	-2.995300	3.865900	-11.578000	21.061722	0.000923	20.783898
22.000597	-2.978700	3.867300	-11.519000	21.048202	0.000924	20.775591
23.002498	-2.998400	3.864300	-11.586000	21.065144	0.000923	20.782105
24.002573	-3.013100	3.863200	-11.640000	21.069363	0.000923	20.794386
25.002096	-3.000500	3.863400	-11.591000	21.077521	0.000924	20.795908
26.000941	-2.995600	3.863000	-11.570000	21.073706	0.000924	20.775022
27.002842	-3.004100	3.861200	-11.599000	21.085708	0.000923	20.769957
28.003386	-2.980900	3.861800	-11.511000	21.113254	0.000924	20.768113
29.005025	-3.015500	3.859200	-11.637000	21.091252	0.000920	20.775977
30.004116	-2.989000	3.860800	-11.539000	21.098739	0.000922	20.779199
31.008048	-2.991100	3.860000	-11.545000	21.104976	0.000921	20.770264
32.005898	-2.966500	3.859100	-11.446000	21.115332	0.000922	20.761657
33.004289	-3.026300	3.857200	-11.672000	21.088243	0.000921	20.772019
34.010487	-2.982500	3.857000	-11.502000	21.102911	0.000921	20.769147
35.004364	-2.992800	3.858600	-11.547000	21.133749	0.000920	20.787192
36.007982	-2.974500	3.858200	-11.475000	21.129262	0.000919	20.774642
37.007203	-2.991000	3.856700	-11.534000	21.135352	0.000920	20.785950
38.006378	-2.991000	3.855600	-11.531000	21.146155	0.000917	20.770677
39.007785	-2.996100	3.856700	-11.554000	21.149202	0.000919	20.763768
40.008567	-2.996100	3.856200	-11.553000	21.149829	0.000920	20.763922
41.006801	-3.022500	3.854300	-11.649000	21.180292	0.000918	20.756936
42.006443	-3.007800	3.855200	-11.595000	21.179473	0.000918	20.758013
43.007955	-3.006900	3.853000	-11.584000	21.177728	0.000919	20.761957
44.005361	-3.019500	3.852300	-11.631000	21.189409	0.000917	20.777909
45.008924	-3.009000	3.852500	-11.591000	21.189585	0.000921	20.769077
46.011209	-3.000900	3.852300	-11.559000	21.209871	0.000920	20.758550
47.007790	-3.004200	3.852100	-11.571000	21.217128	0.000921	20.745894
48.008417	-2.993900	3.850500	-11.525000	21.217306	0.000921	20.745124
49.008101	-3.006700	3.849800	-11.574000	21.227039	0.000919	20.756283
50.012387	-2.982000	3.850200	-11.479000	21.220130	0.000920	20.756010
51.007663	-2.991700	3.849100	-11.514000	21.250191	0.000922	20.734399
52.015115	-2.997400	3.848900	-11.536000	21.263413	0.000920	20.740514
53.009367	-2.996500	3.849700	-11.535000	21.266110	0.000921	20.728987
54.012507	-3.006000	3.848600	-11.568000	21.293450	0.000920	20.738795
55.013165	-3.002700	3.849100	-11.556000	21.274968	0.000919	20.753971
56.013508	-2.999100	3.847600	-11.538000	21.281408	0.000921	20.742395
57.008981	-3.002700	3.847500	-11.550000	21.287095	0.000918	20.758042
58.008417	-2.993700	3.848100	-11.518000	21.295753	0.000917	20.740625
59.011327	-2.992700	3.847000	-11.511000	21.301517	0.000918	20.748288
60.011017	-2.960700	3.849600	-11.396000	21.317559	0.000918	20.759122
61.013997	-3.004000	3.845100	-11.548000	21.345124	0.000919	20.750664
62.009977	-2.984200	3.847100	-11.479000	21.343704	0.000918	20.748295
63.013067	-2.999800	3.846100	-11.537000	21.334752	0.000917	20.732225
64.018116	-3.002100	3.846600	-11.547000	21.350443	0.000919	20.750296
65.010754	-3.007300	3.844100	-11.559000	21.360698	0.000919	20.741115
66.011380	-3.002600	3.844800	-11.544000	21.354165	0.000919	20.744536
67.012643	-3.001400	3.845300	-11.539000	21.380208	0.000920	20.746885
68.011347	-2.996900	3.845000	-11.522000	21.396048	0.000920	20.730489
69.013872	-3.008300	3.843600	-11.561000	21.392210	0.000919	20.712423
70.018984	-3.006900	3.844400	-11.559000	21.393033	0.000920	20.745017
71.014208	-2.983100	3.844600	-11.468000	21.386252	0.000920	20.735387
72.015141	-3.014000	3.841600	-11.578000	21.430851	0.000918	20.743026
73.014320	-3.001700	3.843500	-11.536000	21.412920	0.000920	20.727929
74.016349	-3.015700	3.841900	-11.585000	21.403467	0.000922	20.735541
75.015250	-3.027800	3.839600	-11.625000	21.474652	0.000922	20.730427
76.014411	-3.026400	3.842000	-11.626000	21.437490	0.000920	20.754411
77.015660	-2.991400	3.840600	-11.488000	21.466948	0.000922	20.743108
78.017634	-3.025300	3.839700	-11.615000	21.474684	0.000923	20.731407
79.019889	-2.989000	3.840900	-11.480000	21.494981	0.000921	20.742234
80.016207	-2.997600	3.839600	-11.508000	21.473959	0.000920	20.722147
81.019305	-3.011600	3.840700	-11.566000	21.484682	0.000922	20.739516
82.022383	-3.006300	3.838900	-11.540000	21.501466	0.000924	20.726437
83.020678	-3.014700	3.840000	-11.574000	21.519624	0.000923	20.745082
84.022177	-3.007300	3.838700	-11.544000	21.517853	0.000923	20.728135
85.020442	-3.017100	3.839300	-11.581000	21.536259	0.000923	20.740389
86.022240	-3.000400	3.839100	-11.518000	21.532867	0.000923	20.732728
87.022649	-3.013700	3.837900	-11.565000	21.547378	0.000924	20.735395
88.020848	-2.995800	3.839400	-11.500000	21.543091	0.000924	20.736795
89.022965	-2.997700	3.837800	-11.503000	21.555384	0.000924	20.739612
90.025325	-3.016600	3.836700	-11.573000	21.560398	0.000927	20.725188
91.022558	-2.965200	3.840300	-11.386000	21.573988	0.000924	20.732624
92.019685	-2.984900	3.838000	-11.456000	21.607453	0.000927	20.722016
93.021538	-2.982900	3.838800	-11.450000	21.592690	0.000926	20.739960
94.022205	-2.987600	3.837500	-11.464000	21.610095	0.000924	20.732721
95.019301	-2.992000	3.836300	-11.477000	21.616751	0.000927	20.728002
96.022753	-2.998400	3.836600	-11.503000	21.619470	0.000926	20.733093
97.022980	-2.992900	3.836200	-11.481000	21.619991	0.000927	20.763014
98.023772	-3.007600	3.835200	-11.533000	21.626575	0.000927	20.728349
99.023466	-3.010500	3.834000	-11.540000	21.642134	0.000929	20.745817
100.024068	-2.995200	3.835000	-11.486000	21.640884	0.000927	20.748359
101.021186	-2.985800	3.834900	-11.449000	21.644600	0.000928	20.753501
102.025785	-3.008100	3.834100	-11.532000	21.678562	0.000930	20.738650
103.024041	-3.009000	3.833400	-11.533000	21.677587	0.000928	20.757589
104.025501	-2.979000	3.835300	-11.424000	21.672276	0.000926	20.732359
105.026569	-3.021600	3.832300	-11.579000	21.680229	0.000927	20.746008
106.025181	-3.018500	3.832800	-11.568000	21.679133	0.000926	20.713141
107.025677	-3.002700	3.832600	-11.507000	21.674891	0.000928	20.754891
108.028488	-2.994800	3.833700	-11.480000	21.693639	0.000926	20.750894
109.026896	-2.987700	3.832600	-11.450000	21.727605	0.000928	20.761654
110.022714	-2.979800	3.833100	-11.421000	21.736728	0.000927	20.736644
111.025725	-3.007400	3.832500	-11.524000	21.739048	0.000926	20.740862
112.028513	-2.980800	3.833600	-11.427000	21.739395	0.000926	20.757332
113.026160	-3.002100	3.831200	-11.500000	21.748994	0.000925	20.759827
114.026154	-3.005700	3.831800	-11.515000	21.741861	0.000926	20.741781
115.026264	-3.004700	3.832100	-11.513000	21.767444	0.000926	20.751739
116.025710	-2.996300	3.832300	-11.481000	21.760261	0.000928	20.745023
117.023890	-2.990700	3.831400	-11.458000	21.765844	0.000927	20.764363
118.023913	-2.987800	3.830900	-11.445000	21.778437	0.000930	20.746620
119.028628	-2.995500	3.831200	-11.473000	21.768262	0.000928	20.766309
120.027647	-3.008300	3.830200	-11.521000	21.765321	0.000928	20.755304
121.028706	-3.015500	3.828100	-11.543000	21.794643	0.000929	20.741503
122.031722	-2.990000	3.830600	-11.451000	21.800777	0.000929	20.750962
123.031641	-2.994700	3.830000	-11.469000	21.814689	0.000930	20.755403
124.031882	-3.017100	3.829100	-11.552000	21.846953	0.000930	20.755927
125.034027	-2.997200	3.830100	-11.478000	21.831694	0.000931	20.744447
126.033636	-2.975400	3.830700	-11.396000	21.820300	0.000932	20.762915
127.029790	-2.997400	3.828500	-11.474000	21.849770	0.000933	20.726503
128.032651	-2.990600	3.829000	-11.450000	21.848324	0.000933	20.776741
129.030127	-2.990500	3.827700	-11.446000	21.878019	0.000932	20.769005
130.031515	-3.002800	3.828000	-11.493000	21.882853	0.000935	20.767205
131.032921	-3.012200	3.826000	-11.522000	21.888364	0.000932	20.751384
132.037684	-3.008200	3.825900	-11.508000	21.891479	0.000933	20.739803
133.028365	-3.018900	3.826100	-11.550000	21.915263	0.000935	20.746541
134.033673	-2.988100	3.826900	-11.434000	21.888912	0.000934	20.767106
135.034177	-2.981000	3.826500	-11.405000	21.891827	0.000935	20.758643
136.029592	-2.990900	3.827600	-11.448000	21.909304	0.000935	20.755748
137.033103	-3.009200	3.825000	-11.510000	21.914587	0.000935	20.763881
138.035047	-2.990600	3.827100	-11.444000	21.912843	0.000934	20.769723
139.033105	-3.010400	3.825500	-11.516000	21.919048	0.000935	20.750329
140.034076	-3.008400	3.824400	-11.504000	21.939518	0.000935	20.771768
141.034150	-2.986200	3.826800	-11.427000	21.925732	0.000935	20.745165
142.029380	-3.006500	3.824800	-11.499000	21.923589	0.000936	20.781902
143.034901	-2.983800	3.824300	-11.410000	21.914787	0.000936	20.756022
144.036436	-2.999300	3.824700	-11.470000	21.929894	0.000935	20.771143
145.032129	-3.011300	3.825000	-11.517000	21.933187	0.000938	20.760689
146.035719	-3.008100	3.824700	-11.505000	21.953332	0.000938	20.766155
147.034864	-3.003300	3.823400	-11.482000	21.985941	0.000937	20.774616
148.034636	-3.017000	3.822500	-11.531000	21.962681	0.000937	20.761764
149.038273	-3.002900	3.822200	-11.477000	22.007260	0.000938	20.765611
150.038318	-2.994500	3.822800	-11.445000	22.005241	0.000937	20.759323
151.033836	-3.001900	3.822700	-11.473000	21.991282	0.000937	20.762419
152.039649	-3.023200	3.821400	-11.552000	21.998241	0.000939	20.778394
153.039957	-3.002200	3.821900	-11.474000	22.001606	0.000940	20.771331
154.039030	-3.014600	3.821800	-11.520000	22.024991	0.000939	20.778619
155.039217	-3.007000	3.822000	-11.491000	22.010136	0.000940	20.765646
156.038746	-2.995600	3.821300	-11.446000	22.046257	0.000943	20.770037
157.041032	-3.002900	3.823100	-11.480000	22.067050	0.000939	20.759084
158.039608	-3.011700	3.819600	-11.503000	22.079840	0.000940	20.756716
159.039735	-2.997400	3.820400	-11.450000	22.070070	0.000942	20.760211
160.036289	-3.003100	3.819100	-11.468000	22.080468	0.000942	20.786742
161.051759	-3.013800	3.818800	-11.508000	22.097969	0.000944	20.742622
162.036915	-2.992500	3.820800	-11.433000	22.108939	0.000946	20.767355
163.040711	-2.998500	3.820900	-11.456000	22.140648	0.000943	20.779661
164.039462	-2.999300	3.819300	-11.454000	22.148027	0.000947	20.770928
165.040789	-2.995600	3.820300	-11.444000	22.138729	0.000947	20.774895
166.045085	-2.993700	3.819500	-11.433000	22.157631	0.000947	20.763947
167.042937	-2.982800	3.819400	-11.391000	22.174953	0.000947	20.764694
168.042318	-2.977600	3.819700	-11.373000	22.169173	0.000949	20.775029
169.044889	-2.990100	3.817900	-11.415000	22.174781	0.000948	20.776851
170.048395	-3.027800	3.816800	-11.555000	22.171392	0.000949	20.775828
171.039503	-3.002700	3.817700	-11.462000	22.158134	0.000950	20.773460
172.042448	-3.000200	3.818500	-11.455000	22.155168	0.000952	20.767645
173.045606	-3.006700	3.815900	-11.472000	22.160727	0.000950	20.758986
174.044470	-2.987800	3.817700	-11.405000	22.152252	0.000952	20.777054
175.042507	-2.986100	3.817200	-11.398000	22.136224	0.000952	20.769068
176.045298	-2.987100	3.818400	-11.405000	22.158263	0.000952	20.769795
177.043357	-2.987100	3.817900	-11.403000	22.178525	0.000955	20.773487
178.042546	-2.991400	3.816600	-11.416000	22.183336	0.000954	20.777829
179.045013	-3.013900	3.815700	-11.500000	22.209878	0.000954	20.791602
180.044567	-2.994500	3.815000	-11.421000	22.204324	0.000953	20.767074
181.043284	-2.976200	3.815400	-11.353000	22.237221	0.000956	20.775830
182.045745	-3.005300	3.814100	-11.460000	22.232959	0.000956	20.771089
183.047669	-2.982600	3.816600	-11.382000	22.231340	0.000956	20.783692
184.046888	-3.008500	3.813600	-11.472000	22.228771	0.000958	20.775905
185.046371	-3.005500	3.814500	-11.463000	22.226175	0.000955	20.790850
186.045817	-3.020700	3.813000	-11.517000	22.224504	0.000958	20.776848
187.050677	-3.038200	3.813100	-11.583000	22.256233	0.000958	20.782064
188.046760	-3.023400	3.813700	-11.529000	22.248279	0.000958	20.775049
189.046514	-2.996500	3.813400	-11.426000	22.234920	0.000959	20.765466
190.048145	-2.981500	3.813300	-11.368000	22.258147	0.000960	20.783981
191.048442	-3.004400	3.813800	-11.458000	22.278259	0.000961	20.777566
192.048230	-2.988700	3.814200	-11.398000	22.272750	0.000962	20.771102
193.045902	-2.995400	3.813200	-11.420000	22.291439	0.000962	20.793608
194.054340	-3.000200	3.813000	-11.439000	22.309208	0.000961	20.796701
195.050370	-2.993200	3.812700	-11.412000	22.311077	0.000963	20.793357
196.047119	-2.998800	3.811800	-11.430000	22.319598	0.000962	20.781027
197.051672	-3.005100	3.812100	-11.454000	22.333853	0.000963	20.782499
198.047990	-2.975700	3.813200	-11.346000	22.331283	0.000963	20.781822
199.049219	-2.986800	3.812300	-11.385000	22.363506	0.000963	20.799864
200.052354	-3.008300	3.812600	-11.468000	22.371427	0.000965	20.795468
201.049253	-3.009400	3.810100	-11.465000	22.378081	0.000962	20.815407
202.052248	-2.993700	3.810700	-11.407000	22.399614	0.000965	20.796193
203.052770	-3.010500	3.811400	-11.473000	22.405717	0.000966	20.788554
204.051752	-3.004200	3.810600	-11.447000	22.415489	0.000966	20.805927
205.052931	-3.004100	3.809600	-11.444000	22.415688	0.000964	20.805651
206.058155	-2.995700	3.809100	-11.410000	22.420747	0.000965	20.780846
207.052086	-3.017400	3.808700	-11.491000	22.420249	0.000966	20.784140
208.055317	-3.017100	3.808400	-11.489000	22.399490	0.000965	20.814086
209.050142	-2.999500	3.807100	-11.418000	22.410382	0.000965	20.803657
210.051249	-3.012600	3.808300	-11.472000	22.394433	0.000967	20.809496
211.052486	-3.004700	3.808800	-11.443000	22.415266	0.000966	20.803332
212.050624	-3.010400	3.808100	-11.463000	22.415268	0.000967	20.786265
213.055737	-2.980700	3.809700	-11.355000	22.451007	0.000967	20.803563
214.051690	-2.999100	3.807300	-11.417000	22.460675	0.000968	20.804236
215.056726	-2.978500	3.806900	-11.338000	22.487290	0.000969	20.798173
216.054982	-3.008800	3.805900	-11.449000	22.472315	0.000971	20.786970
217.053575	-3.003400	3.806200	-11.431000	22.477749	0.000967	20.790989
218.053358	-3.013000	3.806200	-11.466000	22.468257	0.000968	20.799027
219.055384	-3.007900	3.807100	-11.450000	22.464222	0.000971	20.818219
220.050195	-2.994700	3.805700	-11.396000	22.456599	0.000970	20.804896
221.056750	-3.022800	3.804700	-11.499000	22.473421	0.000971	20.793293
222.053810	-2.989400	3.805800	-11.376000	22.477533	0.000974	20.805946
223.054217	-2.999100	3.805400	-11.412000	22.506067	0.000972	20.779520
224.059742	-3.018200	3.804100	-11.481000	22.525830	0.000973	20.791726
225.061555	-3.005600	3.804900	-11.435000	22.515788	0.000974	20.828136
226.057686	-2.990700	3.804800	-11.378000	22.518155	0.000975	20.801110
227.057368	-2.988700	3.805600	-11.372000	22.489577	0.000977	20.807576
228.059288	-3.018000	3.804300	-11.479000	22.503109	0.000976	20.808800
229.059465	-2.998800	3.804700	-11.409000	22.502413	0.000977	20.797197
230.063417	-2.973700	3.804000	-11.311000	22.499622	0.000978	20.810523
231.059810	-3.027900	3.801600	-11.509000	22.502338	0.000979	20.806132
232.061076	-2.989100	3.803800	-11.369000	22.472962	0.000978	20.799945
233.059817	-2.993900	3.803300	-11.385000	22.503112	0.000980	20.814492
234.064650	-3.024200	3.801800	-11.496000	22.516941	0.000979	20.800841
235.060256	-2.984600	3.804300	-11.353000	22.514675	0.000981	20.809478
236.060365	-2.995800	3.802900	-11.391000	22.516495	0.000981	20.816516
237.061522	-2.999200	3.802800	-11.404000	22.537475	0.000980	20.827096
238.061199	-3.003900	3.801100	-11.417000	22.554520	0.000980	20.813822
239.069020	-3.001600	3.801300	-11.409000	22.563290	0.000983	20.824027
240.067553	-3.002100	3.801500	-11.412000	22.579884	0.000982	20.816940
241.062022	-3.008800	3.800100	-11.432000	22.583124	0.000982	20.807857
242.059103	-2.993400	3.801800	-11.379000	22.637469	0.000983	20.823881
243.061388	-2.990500	3.799600	-11.362000	22.641605	0.000983	20.813800
244.060951	-2.986100	3.800400	-11.348000	22.647462	0.000984	20.808760
245.063233	-3.001700	3.800700	-11.408000	22.664580	0.000984	20.823536
246.062530	-3.009800	3.799300	-11.434000	22.652696	0.000983	20.815900
247.057467	-3.021800	3.798500	-11.478000	22.651876	0.000986	20.803699
248.057330	-3.005400	3.800200	-11.421000	22.680353	0.000985	20.844075
249.062172	-2.988500	3.799200	-11.353000	22.667574	0.000984	20.811836
250.057449	-3.020700	3.798100	-11.471000	22.680705	0.000987	20.820247
251.068253	-2.996200	3.798300	-11.380000	22.679785	0.000985	20.813636
252.058697	-2.983300	3.800400	-11.337000	22.677570	0.000987	20.823744
253.059422	-3.019200	3.797400	-11.462000	22.676677	0.000985	20.826170
254.066090	-3.035300	3.797400	-11.525000	22.682782	0.000987	20.824223
255.064468	-3.032900	3.796600	-11.513000	22.716093	0.000988	20.814917
256.062240	-2.987800	3.797200	-11.344000	22.725887	0.000989	20.821882
257.066101	-3.008800	3.797500	-11.424000	22.751624	0.000987	20.810679
258.068434	-2.967200	3.798700	-11.270000	22.750355	0.000988	20.838331
259.063372	-2.985600	3.797300	-11.336000	22.759426	0.000990	20.827503
260.064263	-2.997900	3.796100	-11.379000	22.759180	0.000990	20.820145
261.063614	-2.983000	3.797200	-11.326000	22.794432	0.000990	20.829853
262.064017	-2.992300	3.796100	-11.358000	22.777398	0.000992	20.836022
263.063596	-2.991800	3.795500	-11.354000	22.814020	0.000990	20.816759
264.061265	-3.003600	3.795100	-11.397000	22.795065	0.000995	20.832857
265.063578	-2.997600	3.796600	-11.380000	22.822420	0.000993	20.848407
266.063836	-3.004900	3.793800	-11.398000	22.801198	0.000996	20.825251
267.062704	-2.999900	3.795600	-11.386000	22.803765	0.000995	20.830668
268.069109	-2.992300	3.793800	-11.351000	22.786428	0.000993	20.825629
269.066301	-3.006600	3.793200	-11.404000	22.807483	0.000996	20.823486
270.064179	-2.987400	3.793800	-11.332000	22.812615	0.000997	20.825309
271.067126	-3.004100	3.792700	-11.392000	22.854464	0.000998	20.811283
272.071711	-2.993100	3.793600	-11.354000	22.842659	0.000998	20.816526
