LabVIEW Measurement	
Writer_Version	2
Reader_Version	2
Separator	Tab
Decimal_Separator	.
Multi_Headings	No
X_Columns	One
Time_Pref	Absolute
Operator	admin
Description	Clolumns are: time, Current, Voltage, Power, Battery Temp, and Chamber Temp
Date	2024/08/16
Time	13:06:06.104549407958984375
***End_of_Header***	
	
Channels	6						
Samples	1	1	1	1	1	1	
Date	2024/09/14	2024/09/14	2024/09/14	2024/09/14	2024/09/14	2024/09/14	
Time	16:25:31.0906720161437988281	16:25:31.096790313720703125	16:25:31.1046733856201171875	16:25:31.0747408866882324219	16:25:31.0747408866882324219	16:25:31.0747408866882324219	
X_Dimension	Time	Time	Time	Time	Time	Time	
X0	0.0000000000000000E+0	0.0000000000000000E+0	0.0000000000000000E+0	0.0000000000000000E+0	0.0000000000000000E+0	0.0000000000000000E+0	
Delta_X	1.000000	1.000000	1.000000	1.000000	1.000000	1.000000	
***End_of_Header***							
X_Value	Untitled	Untitled 1	Untitled 2	Untitled 3	Untitled 4	Untitled 5	Comment
0.000000	0.020096	4.094500	0.082260	20.981126	0.000934	20.712766
0.999820	-2.992700	3.913100	-11.709000	21.004904	0.000933	20.714737
2.001919	-2.998800	3.908400	-11.718000	20.994359	0.000930	20.709406
3.002459	-3.022200	3.900900	-11.789000	20.994409	0.000929	20.720362
4.003035	-3.007100	3.897700	-11.719000	20.980442	0.000930	20.716351
5.001621	-2.999700	3.895000	-11.681000	20.975578	0.000929	20.701527
6.002247	-2.996100	3.892400	-11.661000	21.000210	0.000928	20.703878
7.003333	-2.993600	3.889600	-11.643000	20.995691	0.000926	20.720697
8.002034	-3.005600	3.886800	-11.681000	21.012367	0.000926	20.715090
9.009007	-2.997100	3.884300	-11.641000	20.999068	0.000924	20.712694
10.003107	-2.985900	3.884300	-11.596000	21.023699	0.000924	20.707458
11.003166	-2.987300	3.881600	-11.595000	21.008138	0.000923	20.710386
12.003102	-2.985700	3.880400	-11.585000	21.014928	0.000922	20.730929
13.005322	-3.001700	3.878500	-11.639000	21.028478	0.000922	20.705125
14.005337	-3.007200	3.876600	-11.657000	21.016557	0.000923	20.707426
15.005868	-3.001700	3.874500	-11.628000	21.039538	0.000920	20.716188
16.005664	-2.986900	3.875300	-11.574000	21.024443	0.000919	20.704408
17.007050	-2.997700	3.874300	-11.613000	21.039024	0.000921	20.691964
18.006286	-2.994400	3.872000	-11.593000	21.058707	0.000919	20.701221
19.005859	-2.998000	3.872900	-11.610000	21.048381	0.000918	20.690892
20.007061	-2.995100	3.869800	-11.590000	21.047981	0.000917	20.683853
21.005566	-2.986000	3.869200	-11.552000	21.057018	0.000918	20.709489
22.006750	-2.973500	3.869700	-11.505000	21.046494	0.000918	20.699436
23.006485	-3.010800	3.868200	-11.645000	21.062612	0.000919	20.724568
24.009706	-3.013800	3.867200	-11.654000	21.070176	0.000916	20.711271
25.008660	-3.009400	3.866300	-11.635000	21.083400	0.000917	20.710273
26.008529	-3.009600	3.864000	-11.626000	21.086244	0.000918	20.689883
27.009362	-3.001700	3.865500	-11.601000	21.091285	0.000918	20.682597
28.008585	-3.002500	3.864200	-11.599000	21.090317	0.000919	20.693957
29.008121	-2.992200	3.863100	-11.558000	21.104987	0.000917	20.699149
30.008461	-3.008100	3.862200	-11.617000	21.118062	0.000918	20.687096
31.008659	-2.998100	3.862100	-11.577000	21.118936	0.000917	20.706464
32.008764	-2.994900	3.862000	-11.566000	21.140490	0.000919	20.684399
33.009464	-3.011300	3.861700	-11.627000	21.129291	0.000917	20.695958
34.009532	-3.007900	3.861100	-11.612000	21.123306	0.000917	20.701825
35.007559	-3.003600	3.860000	-11.593000	21.159627	0.000917	20.702122
36.008952	-2.984600	3.860700	-11.521000	21.157435	0.000918	20.683806
37.009644	-2.993000	3.859800	-11.551000	21.143358	0.000914	20.691063
38.007974	-2.998300	3.859000	-11.569000	21.167814	0.000917	20.691818
39.013340	-2.995600	3.858100	-11.557000	21.180764	0.000917	20.697187
40.013685	-3.004700	3.858700	-11.593000	21.176597	0.000915	20.683060
41.010319	-3.007100	3.857000	-11.598000	21.195557	0.000915	20.692070
42.013350	-3.020500	3.857100	-11.648000	21.190570	0.000915	20.701780
43.012873	-3.002300	3.856600	-11.577000	21.211401	0.000916	20.708394
44.013087	-3.011900	3.855000	-11.610000	21.211702	0.000916	20.703479
45.016307	-2.999100	3.854900	-11.560000	21.215197	0.000915	20.701286
46.018528	-2.991700	3.855300	-11.533000	21.227051	0.000917	20.684220
47.013493	-2.996400	3.854700	-11.549000	21.224380	0.000914	20.694825
48.017501	-3.024700	3.852600	-11.651000	21.227323	0.000915	20.698717
49.016227	-3.016900	3.853600	-11.625000	21.248454	0.000914	20.689984
50.023293	-2.997100	3.853800	-11.548000	21.265896	0.000913	20.698425
51.018182	-2.992900	3.853100	-11.531000	21.261882	0.000913	20.683028
52.017127	-3.010700	3.852000	-11.596000	21.270241	0.000914	20.704194
53.015403	-2.994900	3.853000	-11.539000	21.259843	0.000914	20.701378
54.016747	-3.005000	3.852200	-11.574000	21.288725	0.000913	20.696607
55.021783	-2.980400	3.851300	-11.477000	21.311553	0.000915	20.690995
56.016263	-3.020400	3.850700	-11.629000	21.298534	0.000916	20.701679
57.019939	-3.007100	3.849800	-11.576000	21.303348	0.000915	20.704125
58.020584	-2.992200	3.850000	-11.518000	21.307643	0.000914	20.698938
59.016842	-3.004000	3.849600	-11.562000	21.345310	0.000914	20.715761
60.027045	-3.003800	3.851300	-11.567000	21.337249	0.000916	20.699160
61.023200	-3.002900	3.849300	-11.557000	21.354533	0.000915	20.702702
62.017397	-3.014000	3.849500	-11.602000	21.336800	0.000915	20.679743
63.020533	-3.002500	3.847500	-11.551000	21.336548	0.000915	20.695140
64.020067	-3.005100	3.847500	-11.562000	21.357801	0.000915	20.709291
65.020982	-3.023400	3.847300	-11.631000	21.363785	0.000914	20.699630
66.019193	-2.995100	3.845700	-11.517000	21.367526	0.000914	20.701003
67.019805	-3.003100	3.847300	-11.553000	21.380569	0.000913	20.709786
68.019387	-3.002600	3.845900	-11.547000	21.388453	0.000914	20.717200
69.020825	-2.994800	3.846700	-11.519000	21.386878	0.000913	20.701873
70.019990	-2.976300	3.846200	-11.447000	21.416957	0.000914	20.697353
71.019326	-2.991900	3.845700	-11.504000	21.409794	0.000913	20.708206
72.019323	-2.986300	3.846800	-11.486000	21.416730	0.000916	20.714671
73.022598	-2.994600	3.844600	-11.511000	21.454715	0.000914	20.700994
74.018976	-2.979900	3.844700	-11.455000	21.438031	0.000914	20.729346
75.019398	-3.001600	3.844700	-11.539000	21.448032	0.000914	20.703315
76.022015	-2.999700	3.844000	-11.530000	21.462298	0.000915	20.724703
77.021493	-3.006000	3.843600	-11.552000	21.484471	0.000915	20.708008
78.024200	-3.002500	3.843300	-11.538000	21.473765	0.000916	20.715788
79.022963	-2.996600	3.842900	-11.515000	21.474511	0.000915	20.717957
80.021531	-3.005700	3.842000	-11.547000	21.483795	0.000918	20.718712
81.026778	-2.998900	3.843100	-11.524000	21.498431	0.000916	20.700165
82.024077	-3.024300	3.842900	-11.621000	21.509000	0.000916	20.718802
83.024155	-3.004300	3.841400	-11.538000	21.511838	0.000917	20.723065
84.023860	-2.992300	3.843400	-11.500000	21.520022	0.000917	20.717029
85.025419	-2.998700	3.841500	-11.518000	21.539573	0.000916	20.718575
86.023655	-2.988700	3.841500	-11.480000	21.526252	0.000916	20.724685
87.027112	-3.004000	3.842500	-11.541000	21.533656	0.000917	20.724982
88.030414	-2.990500	3.842200	-11.489000	21.541736	0.000917	20.732594
89.023216	-2.999500	3.839500	-11.515000	21.562082	0.000917	20.732090
90.028215	-2.995500	3.841800	-11.507000	21.534994	0.000917	20.731537
91.029787	-2.983000	3.841200	-11.457000	21.553598	0.000918	20.722177
92.023953	-3.005500	3.840100	-11.540000	21.559403	0.000919	20.716132
93.028544	-2.964100	3.841800	-11.386000	21.572819	0.000919	20.710590
94.028775	-2.990000	3.839100	-11.478000	21.578002	0.000917	20.731899
95.024225	-3.008600	3.838500	-11.547000	21.578570	0.000919	20.722984
96.025502	-2.987600	3.839500	-11.470000	21.573827	0.000920	20.717289
97.028580	-2.978400	3.840600	-11.437000	21.584193	0.000918	20.717231
98.025002	-2.985900	3.839400	-11.463000	21.581449	0.000920	20.715433
99.027128	-2.995000	3.839000	-11.497000	21.612861	0.000920	20.737385
100.029276	-3.000100	3.838300	-11.512000	21.622387	0.000922	20.725106
101.024658	-3.014900	3.836700	-11.566000	21.613079	0.000920	20.738551
102.029362	-3.009700	3.836800	-11.546000	21.635689	0.000919	20.749799
103.032731	-2.989500	3.837000	-11.469000	21.649648	0.000923	20.741482
104.027896	-2.983300	3.837800	-11.448000	21.653207	0.000919	20.740302
105.028731	-2.982200	3.836200	-11.438000	21.672575	0.000923	20.745934
106.029972	-3.006100	3.836700	-11.532000	21.683463	0.000921	20.739287
107.027078	-3.015600	3.836100	-11.564000	21.678947	0.000922	20.747571
108.031878	-2.992400	3.836400	-11.478000	21.709182	0.000922	20.733732
109.031142	-3.023400	3.834800	-11.593000	21.705709	0.000923	20.749697
110.029919	-3.018800	3.834100	-11.573000	21.711262	0.000925	20.755255
111.032613	-3.010100	3.835100	-11.543000	21.720457	0.000924	20.751181
112.031698	-2.995700	3.835700	-11.489000	21.718149	0.000926	20.750768
113.031809	-3.012600	3.835100	-11.552000	21.728568	0.000926	20.742702
114.032733	-3.000300	3.834500	-11.504000	21.739728	0.000926	20.755768
115.032954	-3.004300	3.835300	-11.522000	21.735711	0.000928	20.766447
116.030851	-3.017000	3.833100	-11.563000	21.748243	0.000927	20.752910
117.033903	-2.989900	3.833700	-11.462000	21.764214	0.000926	20.759886
118.032172	-3.001000	3.833600	-11.503000	21.760519	0.000927	20.761403
119.032124	-2.986000	3.834200	-11.448000	21.787736	0.000928	20.769204
120.035238	-2.977100	3.834300	-11.413000	21.766512	0.000927	20.744168
121.032339	-3.006500	3.832100	-11.520000	21.781733	0.000927	20.763196
122.034745	-3.004600	3.831400	-11.510000	21.796737	0.000926	20.759246
123.031730	-2.980600	3.832700	-11.423000	21.795430	0.000928	20.747507
124.035473	-3.019100	3.832800	-11.571000	21.821226	0.000928	20.758627
125.035001	-2.996900	3.832200	-11.483000	21.835055	0.000929	20.772468
126.038034	-2.991100	3.833500	-11.465000	21.824550	0.000928	20.771437
127.035022	-2.991000	3.831100	-11.457000	21.832649	0.000928	20.763896
128.035217	-3.017300	3.831400	-11.559000	21.874624	0.000927	20.756597
129.040562	-2.989600	3.832700	-11.457000	21.882245	0.000928	20.755690
130.035869	-2.998000	3.830300	-11.480000	21.878245	0.000930	20.771127
131.036611	-2.995800	3.830000	-11.472000	21.882397	0.000929	20.782870
132.037205	-2.974700	3.830900	-11.394000	21.891764	0.000932	20.771383
133.037091	-2.993900	3.828500	-11.460000	21.918130	0.000931	20.788292
134.036998	-3.000900	3.829900	-11.493000	21.918241	0.000933	20.783187
135.040734	-2.997600	3.829900	-11.478000	21.907165	0.000933	20.787273
136.037138	-2.986200	3.830700	-11.438000	21.905060	0.000934	20.759087
137.037126	-2.990800	3.828400	-11.447000	21.931431	0.000932	20.767466
138.040386	-2.983200	3.829400	-11.423000	21.930524	0.000932	20.781732
139.037861	-2.987000	3.828500	-11.434000	21.936967	0.000934	20.789129
140.038999	-2.983500	3.828700	-11.422000	21.947882	0.000935	20.788201
141.040537	-2.985800	3.828800	-11.432000	21.971908	0.000932	20.775741
142.044441	-2.989100	3.828400	-11.442000	21.968803	0.000934	20.780219
143.037840	-2.991800	3.827300	-11.450000	21.980661	0.000934	20.803944
144.040235	-2.995600	3.827500	-11.465000	21.996033	0.000935	20.798943
145.037519	-3.029400	3.826700	-11.591000	22.005074	0.000935	20.780492
146.041075	-3.020600	3.826400	-11.556000	21.999032	0.000934	20.808583
147.042902	-2.992600	3.827700	-11.453000	22.007924	0.000940	20.798045
148.045259	-3.016100	3.826500	-11.540000	22.021899	0.000936	20.794491
149.037964	-2.986800	3.826000	-11.427000	22.025635	0.000939	20.807714
150.045216	-2.984000	3.827100	-11.419000	22.005582	0.000938	20.808502
151.044417	-3.012600	3.825800	-11.524000	22.036036	0.000938	20.794892
152.040026	-2.991600	3.827100	-11.448000	22.068235	0.000938	20.794884
153.047769	-3.010400	3.824900	-11.512000	22.051477	0.000939	20.800867
154.040609	-3.000300	3.825500	-11.477000	22.057001	0.000939	20.806397
155.040246	-3.012400	3.824100	-11.518000	22.084690	0.000941	20.783856
156.045457	-2.983900	3.825800	-11.414000	22.088990	0.000942	20.815662
157.042500	-2.984300	3.826300	-11.418000	22.080856	0.000941	20.799933
158.042486	-3.012500	3.822800	-11.515000	22.102462	0.000941	20.811132
159.044160	-3.019700	3.822900	-11.542000	22.107714	0.000942	20.821130
160.043726	-3.003000	3.824200	-11.482000	22.091574	0.000942	20.813982
161.042659	-2.964300	3.825400	-11.338000	22.092514	0.000940	20.796431
162.049519	-2.982500	3.824000	-11.404000	22.094026	0.000941	20.794625
163.043638	-3.009300	3.822500	-11.502000	22.088013	0.000944	20.812788
164.045166	-2.982900	3.824900	-11.408000	22.078558	0.000942	20.823710
165.045897	-3.000300	3.821700	-11.463000	22.096672	0.000944	20.811025
166.042911	-2.993000	3.823100	-11.441000	22.099209	0.000945	20.826841
167.043771	-3.007800	3.822100	-11.494000	22.109172	0.000943	20.815479
168.045716	-3.001000	3.821500	-11.467000	22.129604	0.000942	20.821709
169.044613	-3.012700	3.822700	-11.515000	22.136980	0.000945	20.823878
170.046803	-2.999800	3.821200	-11.462000	22.141857	0.000942	20.835398
171.045334	-2.999300	3.821100	-11.459000	22.176796	0.000947	20.834818
172.051328	-3.003600	3.821000	-11.475000	22.167819	0.000945	20.824882
173.046217	-3.007500	3.821300	-11.491000	22.161733	0.000946	20.823056
174.044724	-2.993600	3.820900	-11.436000	22.173116	0.000946	20.833978
175.046259	-2.984100	3.821400	-11.402000	22.176279	0.000948	20.826240
176.045691	-2.998000	3.820300	-11.453000	22.201379	0.000946	20.827662
177.044780	-3.002600	3.819400	-11.467000	22.206128	0.000949	20.831469
178.051972	-3.006600	3.820000	-11.483000	22.202513	0.000948	20.843021
179.048010	-3.000800	3.819100	-11.459000	22.211330	0.000949	20.838099
180.048634	-2.986600	3.819700	-11.407000	22.226205	0.000950	20.835449
181.050003	-2.996000	3.818700	-11.440000	22.224727	0.000951	20.823538
182.048792	-2.967800	3.820600	-11.337000	22.227067	0.000950	20.837260
183.047363	-2.994800	3.818400	-11.434000	22.231848	0.000952	20.851056
184.051018	-2.983700	3.818900	-11.393000	22.255049	0.000951	20.822604
185.047715	-3.019600	3.816500	-11.523000	22.260229	0.000952	20.850075
186.048098	-3.017600	3.815700	-11.514000	22.276722	0.000955	20.841459
187.054307	-3.019400	3.816600	-11.523000	22.269064	0.000952	20.844697
188.049637	-2.988900	3.817800	-11.409000	22.289825	0.000954	20.835140
189.049397	-2.997300	3.816700	-11.439000	22.323039	0.000954	20.847534
190.051606	-2.997800	3.817400	-11.442000	22.287055	0.000954	20.856546
191.053582	-2.998600	3.816800	-11.443000	22.307331	0.000955	20.833229
192.048850	-2.998100	3.816700	-11.442000	22.315604	0.000954	20.860951
193.051023	-2.993700	3.816000	-11.421000	22.328163	0.000955	20.841759
194.051531	-2.994900	3.815900	-11.427000	22.347697	0.000956	20.853733
195.048365	-2.968900	3.816200	-11.329000	22.349142	0.000955	20.843327
196.051702	-2.998100	3.814600	-11.435000	22.350489	0.000958	20.846097
197.049937	-2.994500	3.815500	-11.424000	22.375408	0.000957	20.831696
198.051555	-2.998500	3.815200	-11.439000	22.400697	0.000956	20.851804
199.054643	-3.016500	3.814200	-11.505000	22.374107	0.000957	20.853627
200.050213	-2.995900	3.812800	-11.421000	22.375977	0.000954	20.852179
201.052122	-3.008300	3.812500	-11.468000	22.394369	0.000958	20.844045
202.056125	-2.992600	3.814200	-11.414000	22.391397	0.000959	20.872362
203.052661	-2.988400	3.813800	-11.396000	22.409987	0.000956	20.853994
204.054467	-3.001300	3.813100	-11.442000	22.396758	0.000957	20.848807
205.056459	-3.004700	3.812200	-11.453000	22.424838	0.000958	20.848478
206.053485	-2.994800	3.813500	-11.419000	22.438844	0.000958	20.845909
207.054880	-2.974700	3.813000	-11.340000	22.435329	0.000960	20.849975
208.053505	-3.001400	3.812600	-11.443000	22.451724	0.000959	20.846953
209.052490	-3.017400	3.810900	-11.498000	22.413771	0.000960	20.841663
210.054060	-2.971500	3.813200	-11.329000	22.425806	0.000960	20.864146
211.057134	-3.007200	3.812100	-11.463000	22.469987	0.000962	20.846277
212.056840	-2.975500	3.813400	-11.345000	22.469814	0.000960	20.865543
213.056993	-2.981100	3.812200	-11.363000	22.474997	0.000960	20.872156
214.058577	-3.001100	3.810000	-11.433000	22.474100	0.000964	20.841387
215.057185	-3.021100	3.809500	-11.508000	22.492787	0.000964	20.859153
216.057020	-2.997800	3.810000	-11.421000	22.503327	0.000965	20.851217
217.061567	-3.036500	3.808200	-11.563000	22.488572	0.000965	20.849242
218.058965	-3.012800	3.810300	-11.478000	22.504097	0.000966	20.875220
219.058877	-2.996000	3.810100	-11.414000	22.524204	0.000966	20.871650
220.059761	-3.016500	3.809800	-11.491000	22.538506	0.000966	20.865586
221.058885	-3.000000	3.809600	-11.428000	22.547653	0.000966	20.851988
222.059728	-2.988400	3.807900	-11.377000	22.560330	0.000969	20.890760
223.060333	-2.990700	3.808600	-11.389000	22.565566	0.000969	20.874194
224.059277	-2.985600	3.809200	-11.372000	22.578500	0.000968	20.848269
225.059677	-2.985400	3.808500	-11.369000	22.583930	0.000967	20.866035
226.061328	-2.989400	3.807700	-11.382000	22.590010	0.000968	20.902468
227.065005	-2.991100	3.808200	-11.389000	22.608597	0.000970	20.871300
228.062024	-2.994500	3.807300	-11.399000	22.608798	0.000970	20.866760
229.062701	-2.999200	3.807300	-11.417000	22.617242	0.000970	20.883751
230.061558	-2.988400	3.808000	-11.378000	22.613327	0.000971	20.869400
231.063110	-2.999800	3.807300	-11.420000	22.626908	0.000972	20.875415
232.061434	-2.992400	3.806200	-11.388000	22.634680	0.000973	20.864708
233.064000	-3.007200	3.805300	-11.443000	22.613875	0.000973	20.864733
234.063717	-2.989700	3.806500	-11.380000	22.650150	0.000972	20.850806
235.063488	-3.008700	3.805700	-11.449000	22.658497	0.000975	20.862486
236.065238	-2.991000	3.806100	-11.382000	22.690132	0.000974	20.880421
237.063920	-2.983600	3.806500	-11.355000	22.681940	0.000976	20.884069
238.064736	-2.973400	3.805600	-11.315000	22.666838	0.000976	20.883641
239.064991	-2.994800	3.805700	-11.397000	22.668308	0.000976	20.869467
240.065949	-3.016100	3.804500	-11.474000	22.653951	0.000976	20.876423
241.065519	-3.018600	3.803100	-11.477000	22.681657	0.000977	20.879519
242.065173	-3.008600	3.803500	-11.443000	22.690528	0.000977	20.888403
243.063998	-2.999700	3.803700	-11.409000	22.689306	0.000980	20.879593
244.066075	-2.995300	3.802900	-11.389000	22.693191	0.000980	20.891545
245.065248	-3.015300	3.802400	-11.464000	22.719869	0.000980	20.869431
246.065344	-3.002700	3.803100	-11.419000	22.721286	0.000981	20.868954
247.066131	-3.022900	3.802800	-11.495000	22.698066	0.000980	20.883627
248.068672	-3.012400	3.803200	-11.454000	22.706559	0.000978	20.874116
249.069029	-2.980300	3.803900	-11.335000	22.700804	0.000983	20.887317
250.069426	-2.980000	3.803500	-11.334000	22.719212	0.000982	20.886790
251.068801	-2.990100	3.801800	-11.367000	22.728605	0.000984	20.886715
252.069706	-2.985500	3.801500	-11.348000	22.728951	0.000982	20.870942
253.069278	-2.976200	3.802200	-11.315000	22.753738	0.000984	20.897666
254.071969	-3.010900	3.801600	-11.445000	22.740131	0.000984	20.870288
255.070326	-3.003300	3.801400	-11.416000	22.777773	0.000985	20.896138
256.070819	-2.980300	3.801700	-11.328000	22.770747	0.000983	20.868239
257.071856	-3.006600	3.799900	-11.424000	22.768059	0.000983	20.907269
258.071423	-2.983300	3.801300	-11.338000	22.777847	0.000985	20.890523
259.071279	-3.002000	3.798300	-11.402000	22.775477	0.000986	20.909483
260.070417	-2.977100	3.801100	-11.316000	22.771541	0.000985	20.879466
261.072019	-2.985300	3.800200	-11.344000	22.784869	0.000986	20.912254
262.073314	-3.006100	3.798800	-11.418000	22.777292	0.000988	20.906087
263.073574	-3.035400	3.798000	-11.527000	22.804498	0.000986	20.902995
264.071903	-2.990700	3.799900	-11.362000	22.789871	0.000986	20.909678
265.073772	-3.017200	3.798200	-11.458000	22.807557	0.000987	20.917437
266.072845	-2.982900	3.799400	-11.332000	22.817624	0.000988	20.895281
267.074948	-2.990400	3.797800	-11.355000	22.848516	0.000987	20.897779
268.074578	-3.008000	3.797700	-11.420000	22.848417	0.000989	20.862595
269.073035	-2.997800	3.798300	-11.385000	22.856459	0.000990	20.898625
270.073973	-2.994500	3.797500	-11.370000	22.873201	0.000989	20.888371
271.074377	-2.999200	3.797300	-11.389000	22.896693	0.000990	20.900051
272.076086	-2.989500	3.798000	-11.353000	22.914822	0.000991	20.892136
