LabVIEW Measurement	
Writer_Version	2
Reader_Version	2
Separator	Tab
Decimal_Separator	.
Multi_Headings	No
X_Columns	One
Time_Pref	Absolute
Operator	admin
Description	Clolumns are: time, Current, Voltage, Power, Battery Temp, and Chamber Temp
Date	2024/08/16
Time	13:06:06.104549407958984375
***End_of_Header***	
	
Channels	6						
Samples	1	1	1	1	1	1	
Date	2024/09/02	2024/09/02	2024/09/02	2024/09/02	2024/09/02	2024/09/02	
Time	11:06:01.88442230224609375	11:06:01.8908319473266601562	11:06:01.8967137336730957031	11:06:01.8683929443359375	11:06:01.8683929443359375	11:06:01.8683929443359375	
X_Dimension	Time	Time	Time	Time	Time	Time	
X0	0.0000000000000000E+0	0.0000000000000000E+0	0.0000000000000000E+0	0.0000000000000000E+0	0.0000000000000000E+0	0.0000000000000000E+0	
Delta_X	1.000000	1.000000	1.000000	1.000000	1.000000	1.000000	
***End_of_Header***							
X_Value	Untitled	Untitled 1	Untitled 2	Untitled 3	Untitled 4	Untitled 5	Comment
0.000000	0.030213	4.103700	0.123930	20.956337	0.000936	20.654778
0.999885	-3.004800	3.936000	-11.825000	20.971112	0.000933	20.653434
2.001474	-3.011000	3.929000	-11.829000	20.933432	0.000932	20.664114
3.006124	-2.995300	3.925700	-11.757000	20.961078	0.000930	20.667107
4.003239	-2.989100	3.920500	-11.718000	20.966318	0.000930	20.663338
5.002906	-3.003800	3.918100	-11.768000	20.976847	0.000930	20.648263
6.007543	-3.015900	3.914300	-11.803000	20.954313	0.000928	20.664134
7.002714	-2.997900	3.911900	-11.726000	20.968235	0.000929	20.645813
8.002614	-2.995600	3.909100	-11.709000	20.976166	0.000929	20.651376
9.002699	-3.014500	3.906600	-11.775000	20.966940	0.000928	20.667755
10.001754	-2.977400	3.906600	-11.631000	20.981109	0.000925	20.680030
11.002800	-3.003300	3.903500	-11.721000	20.986126	0.000926	20.665132
12.002886	-2.974600	3.903400	-11.610000	20.990723	0.000927	20.663565
13.003995	-2.989400	3.901900	-11.663000	20.972877	0.000926	20.662786
14.003658	-3.009100	3.898700	-11.730000	20.986530	0.000925	20.640877
15.010447	-3.007600	3.897200	-11.721000	20.995641	0.000922	20.659475
16.004238	-3.008300	3.896700	-11.720000	20.997685	0.000923	20.662468
17.005904	-3.023600	3.897200	-11.783000	21.020939	0.000921	20.662967
18.004744	-3.005900	3.896100	-11.710000	21.004248	0.000923	20.671404
19.008413	-3.001700	3.894500	-11.689000	21.021339	0.000921	20.661471
20.009032	-3.014300	3.892200	-11.731000	21.023062	0.000918	20.661772
21.006634	-2.987400	3.893200	-11.630000	21.014830	0.000920	20.654959
22.010095	-2.988800	3.891600	-11.630000	21.043047	0.000922	20.651887
23.006837	-2.983500	3.892000	-11.611000	21.028825	0.000919	20.662320
24.007991	-2.992300	3.889300	-11.637000	21.048233	0.000918	20.665136
25.009230	-2.999700	3.888700	-11.665000	21.028322	0.000918	20.660394
26.008275	-3.012300	3.888500	-11.713000	21.038607	0.000918	20.671631
27.007065	-3.009200	3.887200	-11.694000	21.075134	0.000918	20.652687
28.012249	-3.008300	3.887300	-11.692000	21.067475	0.000920	20.660201
29.009026	-3.010400	3.885100	-11.695000	21.056968	0.000914	20.647793
30.010402	-2.984300	3.886700	-11.598000	21.044115	0.000916	20.678088
31.011815	-3.003000	3.884800	-11.665000	21.074182	0.000913	20.666909
32.009591	-3.006500	3.884800	-11.679000	21.099553	0.000915	20.655302
33.013320	-2.989300	3.884100	-11.609000	21.068167	0.000916	20.669429
34.017019	-2.989100	3.883900	-11.607000	21.080344	0.000914	20.648415
35.010478	-3.015900	3.882300	-11.706000	21.092042	0.000915	20.667231
36.012424	-3.017200	3.881500	-11.711000	21.100678	0.000913	20.669705
37.009243	-2.976000	3.881500	-11.551000	21.111902	0.000911	20.668604
38.010008	-2.999800	3.881400	-11.642000	21.099730	0.000912	20.668283
39.016730	-2.993000	3.881100	-11.615000	21.121585	0.000913	20.650312
40.010293	-2.997900	3.880900	-11.633000	21.132466	0.000911	20.673528
41.010736	-3.016900	3.879000	-11.701000	21.105377	0.000908	20.681993
42.012959	-3.005100	3.879000	-11.656000	21.150759	0.000912	20.657211
43.009635	-2.991200	3.879700	-11.604000	21.163706	0.000909	20.666369
44.011105	-2.984000	3.880400	-11.578000	21.164481	0.000907	20.686113
45.009715	-2.997700	3.877600	-11.623000	21.167770	0.000911	20.662848
46.013760	-3.015700	3.878300	-11.695000	21.187332	0.000908	20.674831
47.017718	-3.002400	3.878000	-11.643000	21.169546	0.000909	20.666522
48.011638	-3.033000	3.875600	-11.753000	21.192051	0.000907	20.643987
49.010490	-2.999000	3.876000	-11.622000	21.205046	0.000908	20.654143
50.011566	-3.020200	3.877100	-11.709000	21.198209	0.000908	20.650147
51.012101	-2.997600	3.876700	-11.620000	21.216026	0.000908	20.676509
52.013939	-3.021400	3.874400	-11.705000	21.208768	0.000905	20.676361
53.014012	-2.997500	3.874900	-11.614000	21.240154	0.000906	20.683103
54.010883	-3.024700	3.874300	-11.717000	21.229051	0.000909	20.672942
55.011858	-3.023000	3.874200	-11.710000	21.255321	0.000910	20.677412
56.012410	-2.992900	3.874900	-11.596000	21.240706	0.000908	20.659945
57.011819	-2.979300	3.875300	-11.544000	21.256545	0.000905	20.683379
58.014742	-2.994700	3.874700	-11.603000	21.247041	0.000907	20.662489
59.013855	-3.004100	3.873300	-11.633000	21.258890	0.000903	20.658696
60.016254	-3.013200	3.874600	-11.674000	21.265208	0.000906	20.666914
61.013174	-2.996200	3.872500	-11.602000	21.279452	0.000906	20.663619
62.012897	-2.990800	3.873200	-11.583000	21.288956	0.000905	20.668860
63.017641	-3.016200	3.872800	-11.680000	21.297215	0.000906	20.687082
64.013654	-2.987300	3.874400	-11.573000	21.320092	0.000906	20.667293
65.011616	-3.012700	3.872400	-11.665000	21.321963	0.000907	20.678175
66.013918	-3.005600	3.872000	-11.636000	21.302709	0.000904	20.680249
67.013559	-2.993700	3.872500	-11.592000	21.312760	0.000907	20.668967
68.013432	-3.009600	3.870700	-11.648000	21.325334	0.000906	20.682971
69.017190	-2.982600	3.871100	-11.545000	21.328203	0.000904	20.674934
70.013434	-3.013800	3.869600	-11.661000	21.317030	0.000905	20.683198
71.011734	-3.019100	3.869400	-11.681000	21.325108	0.000904	20.668992
72.013855	-3.005000	3.870300	-11.629000	21.349958	0.000903	20.667776
73.013119	-2.998500	3.869300	-11.601000	21.337859	0.000906	20.670370
74.018133	-3.012000	3.868600	-11.650000	21.340954	0.000905	20.669199
75.014232	-3.006200	3.868900	-11.630000	21.353078	0.000908	20.669001
76.015551	-3.003700	3.869200	-11.621000	21.359940	0.000908	20.673495
77.013532	-3.035100	3.866700	-11.735000	21.360261	0.000908	20.681878
78.013113	-2.985400	3.869300	-11.550000	21.367774	0.000909	20.687973
79.016638	-2.988600	3.868500	-11.559000	21.395805	0.000906	20.687094
80.012609	-3.004500	3.867200	-11.618000	21.412470	0.000905	20.674844
81.015708	-2.996000	3.866600	-11.584000	21.398051	0.000907	20.692187
82.014388	-3.016700	3.867300	-11.666000	21.413615	0.000906	20.704442
83.013598	-2.996500	3.866600	-11.585000	21.433494	0.000907	20.680707
84.014392	-3.022800	3.865400	-11.682000	21.403412	0.000907	20.680006
85.015146	-3.011500	3.865100	-11.637000	21.437083	0.000907	20.684773
86.014744	-2.990500	3.866400	-11.561000	21.440252	0.000906	20.680357
87.017446	-3.006300	3.865900	-11.620000	21.455186	0.000907	20.685816
88.020061	-2.973500	3.865500	-11.493000	21.475637	0.000907	20.709126
89.017745	-2.997600	3.866300	-11.588000	21.462195	0.000909	20.708004
90.021559	-3.030100	3.864200	-11.707000	21.473065	0.000905	20.679998
91.016897	-2.986100	3.865500	-11.542000	21.477099	0.000906	20.690199
92.021190	-2.999700	3.864800	-11.593000	21.492412	0.000907	20.687977
93.015427	-3.008800	3.864800	-11.627000	21.502462	0.000910	20.677169
94.017175	-2.982300	3.864900	-11.526000	21.518693	0.000912	20.690566
95.019776	-3.003800	3.862700	-11.601000	21.517020	0.000909	20.701695
96.023979	-2.995400	3.862200	-11.567000	21.536019	0.000908	20.706008
97.018977	-2.984800	3.863800	-11.531000	21.561380	0.000907	20.700565
98.018723	-2.987300	3.864500	-11.542000	21.514613	0.000910	20.685061
99.019067	-3.008000	3.863500	-11.620000	21.543090	0.000909	20.708342
100.019179	-3.024700	3.862500	-11.681000	21.548772	0.000909	20.696957
101.023827	-3.014600	3.863400	-11.646000	21.551911	0.000910	20.700574
102.018344	-3.006300	3.862500	-11.611000	21.549839	0.000908	20.684748
103.023398	-2.996900	3.862000	-11.573000	21.567610	0.000911	20.705851
104.019039	-3.004600	3.860600	-11.599000	21.568080	0.000911	20.685931
105.020798	-3.000200	3.860800	-11.582000	21.563436	0.000906	20.696458
106.023707	-3.007900	3.860200	-11.610000	21.572785	0.000910	20.684950
107.020483	-3.000300	3.862000	-11.586000	21.588792	0.000910	20.714247
108.020496	-3.011300	3.860500	-11.624000	21.598586	0.000910	20.715513
109.020610	-3.003200	3.860800	-11.594000	21.602496	0.000909	20.695716
110.021343	-2.997900	3.861200	-11.575000	21.619051	0.000910	20.708491
111.028890	-3.005600	3.860800	-11.603000	21.647220	0.000911	20.707282
112.020663	-2.980900	3.861500	-11.510000	21.636644	0.000910	20.722304
113.024443	-3.006500	3.859900	-11.604000	21.645165	0.000912	20.697638
114.023604	-2.981400	3.860300	-11.508000	21.643615	0.000912	20.722168
115.024951	-3.008700	3.858200	-11.606000	21.678821	0.000912	20.713777
116.023082	-2.994900	3.858600	-11.556000	21.661731	0.000910	20.715641
117.032143	-2.985400	3.859900	-11.521000	21.671006	0.000912	20.718284
118.024627	-2.999300	3.859500	-11.575000	21.670276	0.000910	20.692896
119.027744	-2.995700	3.860100	-11.562000	21.665757	0.000909	20.725834
120.026175	-2.998400	3.859400	-11.571000	21.656751	0.000912	20.726304
121.028160	-3.030600	3.857200	-11.689000	21.670763	0.000910	20.736534
122.037378	-3.018200	3.858300	-11.644000	21.687716	0.000909	20.723628
123.031451	-3.008000	3.857300	-11.601000	21.665770	0.000911	20.743391
124.033066	-2.999700	3.858100	-11.572000	21.692026	0.000911	20.718932
125.029680	-3.001400	3.857000	-11.575000	21.683321	0.000909	20.741990
126.029382	-3.007100	3.856400	-11.596000	21.716008	0.000910	20.734399
127.033211	-2.987600	3.859100	-11.529000	21.720568	0.000911	20.715254
128.032201	-2.998100	3.857800	-11.564000	21.728944	0.000913	20.739759
129.032399	-2.988700	3.856600	-11.526000	21.731136	0.000912	20.732944
130.033371	-3.004900	3.856800	-11.588000	21.760208	0.000909	20.739755
131.034519	-2.996900	3.857100	-11.558000	21.753724	0.000912	20.738481
132.033344	-2.986200	3.855800	-11.513000	21.754725	0.000912	20.735690
133.036548	-2.996900	3.856300	-11.555000	21.754000	0.000912	20.725955
134.035703	-2.993400	3.856100	-11.542000	21.788156	0.000915	20.746864
135.039314	-3.013000	3.854900	-11.613000	21.799052	0.000912	20.737855
136.038444	-2.986200	3.855500	-11.512000	21.800671	0.000912	20.746588
137.035770	-2.982900	3.855500	-11.498000	21.791419	0.000912	20.726895
138.042933	-3.018400	3.853300	-11.630000	21.813960	0.000913	20.724326
139.037101	-2.978900	3.856300	-11.487000	21.797853	0.000914	20.741397
140.036561	-2.981300	3.856100	-11.493000	21.816704	0.000915	20.745565
141.035085	-2.998000	3.856200	-11.560000	21.840040	0.000914	20.720557
142.036750	-2.985400	3.855500	-11.509000	21.836349	0.000914	20.755271
143.037182	-2.987800	3.854900	-11.516000	21.838092	0.000914	20.743739
144.041571	-2.983700	3.853900	-11.498000	21.835624	0.000914	20.742691
145.037945	-2.978100	3.853800	-11.476000	21.848592	0.000914	20.736230
146.036553	-3.010300	3.854600	-11.602000	21.845004	0.000916	20.744019
147.037696	-2.994700	3.853400	-11.539000	21.871405	0.000916	20.747210
148.038095	-2.996300	3.852300	-11.541000	21.871631	0.000917	20.746963
149.040071	-3.002800	3.853300	-11.569000	21.870383	0.000915	20.745714
150.038613	-3.010300	3.852400	-11.596000	21.889735	0.000915	20.762714
151.038206	-2.996100	3.852200	-11.540000	21.888042	0.000917	20.732094
152.038960	-2.991700	3.851900	-11.522000	21.920126	0.000916	20.758994
153.039304	-3.012300	3.852600	-11.604000	21.942994	0.000918	20.765764
154.038003	-2.996900	3.852000	-11.543000	21.930279	0.000916	20.728853
155.037907	-3.021000	3.851600	-11.634000	21.947335	0.000915	20.765843
156.038980	-3.004100	3.851100	-11.567000	21.948060	0.000917	20.743808
157.037375	-2.998300	3.852100	-11.547000	21.957855	0.000917	20.748872
158.037895	-3.002900	3.851200	-11.564000	21.947686	0.000913	20.747701
159.038048	-2.990800	3.851300	-11.517000	21.935897	0.000920	20.748702
160.037842	-2.994500	3.850200	-11.529000	21.957736	0.000918	20.761554
161.043318	-3.010500	3.851600	-11.594000	21.965792	0.000918	20.751127
162.039776	-2.996800	3.849800	-11.536000	21.997828	0.000919	20.767075
163.040101	-2.996500	3.850600	-11.538000	22.002968	0.000920	20.754202
164.046314	-2.976900	3.850500	-11.462000	22.011523	0.000920	20.753283
165.040131	-2.987800	3.849400	-11.500000	21.990307	0.000922	20.751959
166.041527	-3.008300	3.849700	-11.580000	22.010526	0.000923	20.753708
167.039975	-2.993000	3.848800	-11.519000	22.000781	0.000921	20.753910
168.037448	-2.993100	3.849400	-11.521000	22.019031	0.000921	20.769334
169.041422	-2.986700	3.848600	-11.494000	22.025761	0.000922	20.754734
170.041688	-3.021100	3.848400	-11.625000	22.030428	0.000922	20.771260
171.039292	-3.006500	3.847600	-11.566000	22.032870	0.000924	20.756161
172.039586	-2.989200	3.848700	-11.503000	22.008792	0.000922	20.765722
173.038751	-3.004400	3.848300	-11.561000	22.008471	0.000924	20.749753
174.041466	-2.996000	3.848600	-11.530000	22.050201	0.000925	20.776356
175.041298	-2.996700	3.847000	-11.528000	22.029336	0.000927	20.788185
176.039721	-3.000300	3.845900	-11.538000	22.021436	0.000922	20.751827
177.046313	-2.997400	3.847500	-11.531000	22.036618	0.000926	20.761335
178.043049	-2.976800	3.846700	-11.450000	22.033652	0.000923	20.764531
179.042355	-2.983000	3.846000	-11.471000	22.041482	0.000926	20.766205
180.041430	-2.979700	3.846200	-11.460000	22.049085	0.000926	20.779506
181.043137	-3.009100	3.846300	-11.573000	22.058084	0.000927	20.765755
182.039889	-3.010000	3.845400	-11.574000	22.031189	0.000925	20.750685
183.050713	-3.010700	3.844400	-11.572000	22.044925	0.000926	20.791463
184.047918	-3.028500	3.844900	-11.643000	22.055497	0.000926	20.764588
185.040106	-3.008900	3.845300	-11.569000	22.079179	0.000926	20.793038
186.041842	-3.010800	3.844900	-11.575000	22.091118	0.000929	20.774170
187.040114	-2.999900	3.845400	-11.534000	22.094413	0.000928	20.762296
188.040596	-3.020000	3.844300	-11.609000	22.105553	0.000927	20.764440
189.043643	-3.002200	3.845700	-11.544000	22.117220	0.000926	20.783707
190.042203	-2.999100	3.845400	-11.531000	22.141749	0.000930	20.775073
191.045503	-2.986900	3.843500	-11.479000	22.143322	0.000930	20.748673
192.041706	-3.009500	3.844800	-11.570000	22.159227	0.000930	20.766019
193.046374	-2.973500	3.844200	-11.429000	22.160450	0.000930	20.778149
194.045143	-2.994900	3.844200	-11.512000	22.161920	0.000932	20.765870
195.045703	-2.974800	3.844600	-11.436000	22.164070	0.000933	20.768971
196.051097	-2.986500	3.844200	-11.479000	22.192835	0.000931	20.800616
197.049892	-2.993200	3.843700	-11.503000	22.184734	0.000932	20.764530
198.046357	-2.991800	3.843200	-11.497000	22.216287	0.000934	20.770043
199.051434	-3.004200	3.840300	-11.536000	22.212354	0.000934	20.768476
200.046394	-2.969500	3.843400	-11.412000	22.246978	0.000935	20.783703
201.045699	-3.013500	3.842500	-11.578000	22.255176	0.000936	20.788593
202.045856	-2.977300	3.841300	-11.436000	22.238680	0.000936	20.795784
203.046314	-2.982300	3.842300	-11.458000	22.250420	0.000936	20.778141
204.048295	-2.978000	3.841100	-11.437000	22.261839	0.000939	20.781513
205.048242	-2.993800	3.841400	-11.498000	22.270593	0.000937	20.779848
206.047298	-3.002100	3.841200	-11.530000	22.266060	0.000934	20.790955
207.052419	-3.004500	3.841800	-11.542000	22.261699	0.000935	20.791330
208.047230	-3.004600	3.840600	-11.539000	22.287175	0.000939	20.790287
209.048215	-3.010100	3.839700	-11.555000	22.273871	0.000938	20.780759
210.048308	-2.996800	3.841300	-11.509000	22.283165	0.000937	20.796703
211.049236	-2.993100	3.840200	-11.493000	22.282922	0.000937	20.794563
212.048686	-2.992700	3.839300	-11.488000	22.279208	0.000939	20.784680
213.051988	-2.992900	3.839600	-11.490000	22.285096	0.000940	20.794843
214.048122	-2.991500	3.841500	-11.490000	22.308377	0.000939	20.782119
215.049999	-2.998700	3.840500	-11.514000	22.319446	0.000939	20.799840
216.050497	-2.983100	3.839000	-11.451000	22.326474	0.000940	20.807827
217.053353	-3.012200	3.838400	-11.561000	22.332931	0.000941	20.801964
218.055254	-3.007100	3.838900	-11.543000	22.352077	0.000942	20.811179
219.051133	-3.010000	3.839300	-11.555000	22.352975	0.000942	20.785999
220.051294	-3.006900	3.837000	-11.536000	22.350537	0.000941	20.785929
221.050821	-3.020800	3.837300	-11.590000	22.331177	0.000941	20.787405
222.052549	-3.007300	3.837400	-11.539000	22.354955	0.000945	20.782767
223.054048	-3.003800	3.838300	-11.528000	22.385338	0.000940	20.790432
224.051486	-3.003100	3.837400	-11.524000	22.353539	0.000947	20.784668
225.053210	-2.971000	3.837300	-11.399000	22.366451	0.000946	20.820357
226.053240	-3.008900	3.835500	-11.540000	22.366727	0.000947	20.798822
227.052597	-3.013200	3.835700	-11.556000	22.362140	0.000946	20.810824
228.060966	-3.006400	3.836000	-11.532000	22.378170	0.000947	20.787995
229.055277	-3.010100	3.836000	-11.545000	22.389385	0.000947	20.806339
230.055803	-2.991500	3.835900	-11.474000	22.362844	0.000949	20.792089
231.055191	-3.008000	3.835700	-11.536000	22.382229	0.000947	20.812923
232.054712	-2.996800	3.836900	-11.497000	22.391506	0.000949	20.808462
233.053870	-2.999300	3.835300	-11.501000	22.377478	0.000945	20.819071
234.058923	-2.994100	3.834800	-11.481000	22.391580	0.000952	20.792889
235.055309	-2.994600	3.834500	-11.481000	22.415954	0.000950	20.795487
236.055755	-2.985700	3.835100	-11.449000	22.435663	0.000951	20.807637
237.056256	-2.980000	3.834900	-11.427000	22.437656	0.000950	20.815323
238.054027	-3.027400	3.833100	-11.603000	22.440600	0.000952	20.810684
239.059724	-2.992400	3.834000	-11.471000	22.453931	0.000953	20.798905
240.056733	-2.996300	3.834600	-11.488000	22.453956	0.000952	20.806042
241.057524	-2.998300	3.833200	-11.492000	22.450119	0.000955	20.811208
242.055643	-2.984600	3.833800	-11.441000	22.498362	0.000955	20.823960
243.056261	-2.981400	3.833200	-11.427000	22.489568	0.000955	20.825585
244.057717	-3.005700	3.832200	-11.516000	22.508428	0.000954	20.804170
245.057648	-2.979100	3.833900	-11.421000	22.515707	0.000954	20.818572
246.057202	-2.992200	3.832300	-11.466000	22.521088	0.000957	20.825383
247.057922	-2.998800	3.831000	-11.487000	22.517230	0.000956	20.818675
248.056336	-3.012000	3.831500	-11.540000	22.505863	0.000956	20.824360
249.060966	-2.992600	3.831300	-11.464000	22.517152	0.000955	20.817174
250.057076	-3.019900	3.830600	-11.566000	22.509330	0.000957	20.822142
251.057991	-2.995700	3.832400	-11.479000	22.511619	0.000958	20.814952
252.061467	-2.988000	3.832400	-11.449000	22.525299	0.000958	20.820592
253.059518	-2.997100	3.831200	-11.481000	22.532652	0.000957	20.835068
254.058628	-3.002200	3.830600	-11.499000	22.526398	0.000958	20.821219
255.062894	-2.999400	3.829500	-11.485000	22.528893	0.000959	20.821821
256.058327	-2.999800	3.829400	-11.486000	22.532158	0.000958	20.809443
257.061275	-2.991000	3.830700	-11.456000	22.522911	0.000959	20.834321
258.059619	-2.985600	3.831400	-11.438000	22.535279	0.000959	20.807827
259.060256	-3.001300	3.830800	-11.496000	22.548930	0.000960	20.825292
260.059520	-2.984300	3.830400	-11.429000	22.572325	0.000959	20.842559
261.061450	-3.004500	3.829400	-11.504000	22.574025	0.000957	20.840469
262.059534	-3.004600	3.829500	-11.505000	22.576718	0.000961	20.833208
263.061826	-2.988700	3.829200	-11.444000	22.596379	0.000960	20.836779
264.060704	-3.001500	3.829700	-11.494000	22.603352	0.000962	20.826694
265.061101	-3.010300	3.829200	-11.526000	22.621325	0.000963	20.827152
266.064924	-3.004900	3.828500	-11.502000	22.630962	0.000964	20.838226
267.060503	-2.986600	3.829100	-11.436000	22.605205	0.000964	20.813851
268.062169	-2.993600	3.827600	-11.457000	22.625141	0.000964	20.836189
269.061287	-3.000700	3.826900	-11.483000	22.634136	0.000965	20.830500
270.062436	-2.985500	3.828600	-11.429000	22.650404	0.000964	20.840156
271.064286	-2.996200	3.825300	-11.459000	22.651729	0.000966	20.816354
272.064357	-2.998300	3.827800	-11.475000	22.668001	0.000964	20.839764
