LabVIEW Measurement	
Writer_Version	2
Reader_Version	2
Separator	Tab
Decimal_Separator	.
Multi_Headings	No
X_Columns	One
Time_Pref	Absolute
Operator	admin
Description	Clolumns are: time, Current, Voltage, Power, Battery Temp, and Chamber Temp
Date	2024/08/16
Time	13:06:06.104549407958984375
***End_of_Header***	
	
Channels	6						
Samples	1	1	1	1	1	1	
Date	2024/09/13	2024/09/13	2024/09/13	2024/09/13	2024/09/13	2024/09/13	
Time	14:06:23.1647129058837890625	14:06:23.1702399253845214844	14:06:23.1781029701232910156	14:06:23.1469216346740722656	14:06:23.1469216346740722656	14:06:23.1469216346740722656	
X_Dimension	Time	Time	Time	Time	Time	Time	
X0	0.0000000000000000E+0	0.0000000000000000E+0	0.0000000000000000E+0	0.0000000000000000E+0	0.0000000000000000E+0	0.0000000000000000E+0	
Delta_X	1.000000	1.000000	1.000000	1.000000	1.000000	1.000000	
***End_of_Header***							
X_Value	Untitled	Untitled 1	Untitled 2	Untitled 3	Untitled 4	Untitled 5	Comment
0.000000	0.032259	4.095500	0.132080	21.074236	0.000928	20.892190
1.000901	-2.993600	3.917300	-11.725000	21.065353	0.000928	20.871927
2.000170	-2.986100	3.910300	-11.676000	21.065400	0.000929	20.877189
3.006040	-2.991600	3.904400	-11.678000	21.066971	0.000928	20.886346
4.000395	-2.978800	3.900200	-11.616000	21.028226	0.000927	20.872250
5.000281	-3.019000	3.896700	-11.763000	21.074729	0.000922	20.872296
6.002917	-3.004000	3.893800	-11.696000	21.075079	0.000926	20.870276
7.002791	-2.990600	3.891200	-11.635000	21.066367	0.000924	20.879105
8.003896	-2.964300	3.890000	-11.530000	21.081564	0.000921	20.877236
9.001918	-3.006200	3.887100	-11.685000	21.074726	0.000923	20.878457
10.005099	-2.998800	3.885700	-11.651000	21.083758	0.000920	20.882749
11.004985	-3.005600	3.882600	-11.668000	21.086150	0.000921	20.870443
12.006227	-3.023700	3.881000	-11.735000	21.097849	0.000919	20.862232
13.002236	-2.989700	3.881300	-11.603000	21.068307	0.000919	20.859235
14.002725	-3.013700	3.879600	-11.691000	21.099541	0.000918	20.868191
15.003625	-3.017800	3.878600	-11.704000	21.091879	0.000916	20.869536
16.003721	-2.985300	3.877600	-11.575000	21.094249	0.000917	20.861950
17.005593	-3.006200	3.876700	-11.653000	21.113285	0.000914	20.861076
18.003560	-2.999800	3.875800	-11.626000	21.104427	0.000916	20.863596
19.003945	-3.005600	3.871900	-11.636000	21.122561	0.000913	20.852338
20.007954	-2.987500	3.872900	-11.568000	21.122134	0.000914	20.873720
21.004395	-2.998300	3.872200	-11.608000	21.122406	0.000912	20.872096
22.007939	-2.997800	3.871600	-11.605000	21.134632	0.000912	20.866308
23.005070	-3.005000	3.870900	-11.630000	21.136701	0.000912	20.864111
24.006221	-3.012100	3.868400	-11.651000	21.146829	0.000913	20.866655
25.006696	-3.021100	3.866800	-11.681000	21.165263	0.000912	20.861387
26.005618	-3.002100	3.869100	-11.615000	21.184570	0.000911	20.864579
27.017313	-3.012300	3.865600	-11.642000	21.153137	0.000912	20.873913
28.008393	-2.997100	3.866100	-11.586000	21.173569	0.000910	20.858790
29.007233	-3.016500	3.864900	-11.658000	21.189106	0.000911	20.851099
30.008873	-2.999700	3.865500	-11.594000	21.178306	0.000908	20.851675
31.020857	-2.982200	3.865700	-11.527000	21.178805	0.000912	20.852174
32.008905	-3.015200	3.863600	-11.648000	21.195642	0.000909	20.868543
33.014047	-2.995800	3.863900	-11.574000	21.181723	0.000907	20.878800
34.009341	-3.001400	3.863100	-11.593000	21.199784	0.000908	20.873634
35.014276	-3.013000	3.861100	-11.632000	21.206495	0.000909	20.862804
36.012489	-2.992500	3.861800	-11.555000	21.198561	0.000910	20.855816
37.009089	-2.985600	3.861300	-11.527000	21.222558	0.000910	20.856587
38.013266	-2.984900	3.861200	-11.524000	21.233112	0.000910	20.867145
39.013025	-3.004800	3.860200	-11.598000	21.242861	0.000909	20.842760
40.014881	-3.012400	3.859300	-11.625000	21.262969	0.000908	20.850548
41.014375	-2.991500	3.859100	-11.544000	21.263840	0.000909	20.843359
42.016943	-2.993400	3.858700	-11.550000	21.248326	0.000908	20.862925
43.013035	-2.989900	3.858900	-11.537000	21.260271	0.000907	20.857806
44.016718	-3.016200	3.856300	-11.630000	21.278508	0.000909	20.843808
45.014356	-3.011900	3.856400	-11.614000	21.279877	0.000907	20.868884
46.015476	-2.992500	3.857800	-11.543000	21.300803	0.000907	20.839560
47.016877	-2.999800	3.855900	-11.566000	21.298334	0.000908	20.851314
48.016744	-2.997500	3.856400	-11.557000	21.280246	0.000909	20.852659
49.020196	-3.000900	3.855300	-11.568000	21.322127	0.000908	20.841453
50.017567	-2.996400	3.855100	-11.550000	21.299802	0.000908	20.847093
51.019342	-2.987800	3.856000	-11.520000	21.308931	0.000908	20.852433
52.017116	-3.005200	3.854700	-11.582000	21.323518	0.000907	20.843794
53.016097	-3.005100	3.853400	-11.578000	21.333595	0.000906	20.862883
54.017171	-2.994100	3.854600	-11.540000	21.332347	0.000908	20.852151
55.016771	-2.997500	3.853400	-11.550000	21.331498	0.000908	20.839923
56.018410	-3.007700	3.852500	-11.585000	21.371581	0.000909	20.844463
57.019800	-3.010900	3.853400	-11.600000	21.361204	0.000907	20.860633
58.018474	-3.005800	3.851700	-11.576000	21.367136	0.000906	20.860404
59.020999	-3.028400	3.850800	-11.662000	21.402578	0.000907	20.834699
60.020955	-3.003500	3.851100	-11.565000	21.386189	0.000907	20.849122
61.019992	-3.010500	3.851800	-11.595000	21.386186	0.000907	20.833472
62.020936	-2.997700	3.851200	-11.542000	21.391399	0.000908	20.814033
63.019782	-3.007400	3.850500	-11.579000	21.407959	0.000907	20.838660
64.020091	-3.004100	3.850000	-11.564000	21.417211	0.000909	20.839857
65.024516	-3.004000	3.850300	-11.566000	21.412645	0.000907	20.836237
66.021964	-3.003000	3.849000	-11.558000	21.406159	0.000907	20.831645
67.021867	-3.008800	3.849800	-11.582000	21.431824	0.000907	20.852107
68.020517	-2.982600	3.850600	-11.483000	21.456141	0.000906	20.840877
69.020846	-2.995500	3.849500	-11.530000	21.467564	0.000907	20.841874
70.024748	-3.008500	3.846800	-11.571000	21.464173	0.000907	20.847015
71.025978	-2.994700	3.848900	-11.525000	21.464269	0.000907	20.849008
72.022576	-2.997800	3.848100	-11.535000	21.483797	0.000906	20.834409
73.022207	-2.989000	3.848000	-11.501000	21.499338	0.000907	20.853278
74.022110	-2.976200	3.847400	-11.450000	21.500212	0.000906	20.823808
75.023156	-2.988000	3.847700	-11.496000	21.509463	0.000906	20.842073
76.024282	-2.995400	3.846600	-11.522000	21.496644	0.000907	20.818341
77.022934	-3.020000	3.845500	-11.612000	21.482205	0.000904	20.847514
78.023698	-3.007000	3.844500	-11.558000	21.502631	0.000905	20.833340
79.024778	-2.985400	3.846200	-11.482000	21.518246	0.000905	20.858921
80.023426	-2.997500	3.845500	-11.526000	21.513232	0.000906	20.821663
81.027246	-3.006900	3.846200	-11.565000	21.512860	0.000906	20.826980
82.026278	-2.981400	3.845700	-11.465000	21.525583	0.000906	20.833073
83.025070	-2.992800	3.844900	-11.506000	21.515557	0.000907	20.833947
84.027349	-3.003900	3.845000	-11.549000	21.535236	0.000906	20.836568
85.026506	-2.995200	3.845600	-11.518000	21.563741	0.000906	20.845177
86.025830	-3.019200	3.844400	-11.606000	21.569102	0.000905	20.820196
87.027059	-3.009500	3.843900	-11.567000	21.585887	0.000908	20.855484
88.026455	-2.999600	3.843800	-11.529000	21.577262	0.000904	20.839741
89.025942	-3.004900	3.842900	-11.546000	21.613050	0.000906	20.820078
90.025065	-2.990800	3.844600	-11.497000	21.627113	0.000909	20.826564
91.025457	-2.993100	3.845000	-11.508000	21.619185	0.000907	20.820527
92.031437	-2.985900	3.843300	-11.474000	21.609163	0.000907	20.828990
93.029825	-2.992000	3.843700	-11.500000	21.625319	0.000908	20.833304
94.030167	-3.005800	3.841900	-11.546000	21.634325	0.000906	20.823350
95.026877	-2.999100	3.842500	-11.523000	21.633473	0.000908	20.824869
96.026961	-3.009800	3.841300	-11.561000	21.628014	0.000909	20.817035
97.034133	-2.986900	3.842400	-11.476000	21.649809	0.000909	20.829362
98.029653	-2.978000	3.841700	-11.440000	21.640481	0.000908	20.817184
99.026889	-2.995800	3.841100	-11.505000	21.643377	0.000907	20.817236
100.025984	-3.006900	3.840200	-11.546000	21.667612	0.000907	20.812092
101.026110	-3.000500	3.840300	-11.521000	21.680757	0.000909	20.834256
102.025923	-2.986000	3.840700	-11.468000	21.668339	0.000909	20.812346
103.029218	-2.979200	3.841000	-11.442000	21.706444	0.000911	20.815866
104.027497	-2.997600	3.839500	-11.507000	21.726593	0.000911	20.819910
105.027795	-2.991300	3.840400	-11.487000	21.737264	0.000910	20.828693
106.026759	-3.013500	3.839000	-11.568000	21.706843	0.000910	20.810576
107.026083	-3.017000	3.837300	-11.576000	21.711137	0.000909	20.824357
108.030818	-2.983500	3.839300	-11.452000	21.723877	0.000910	20.823830
109.036656	-2.990800	3.839100	-11.481000	21.733727	0.000909	20.815196
110.028900	-2.991900	3.838700	-11.484000	21.747816	0.000910	20.813176
111.029796	-2.984200	3.840000	-11.458000	21.778911	0.000909	20.808261
112.030342	-2.995800	3.838600	-11.499000	21.753380	0.000910	20.801201
113.032793	-2.999800	3.837800	-11.512000	21.773529	0.000909	20.812357
114.032447	-3.017600	3.835500	-11.573000	21.764580	0.000912	20.814306
115.031641	-3.008700	3.835200	-11.537000	21.763357	0.000911	20.804548
116.033978	-2.996400	3.835200	-11.491000	21.765502	0.000913	20.810014
117.031671	-2.973500	3.837000	-11.408000	21.800835	0.000913	20.804126
118.032469	-2.989100	3.835700	-11.464000	21.783009	0.000912	20.811415
119.034093	-2.997000	3.836700	-11.498000	21.811855	0.000912	20.811836
120.033051	-2.981100	3.836100	-11.435000	21.800064	0.000913	20.811415
121.033922	-2.994400	3.835300	-11.482000	21.836715	0.000913	20.789303
122.033796	-2.999200	3.834900	-11.501000	21.826720	0.000915	20.830981
123.033260	-3.008900	3.833400	-11.533000	21.823726	0.000916	20.802855
124.035378	-3.017800	3.834700	-11.570000	21.828117	0.000915	20.812939
125.035327	-2.989800	3.834600	-11.463000	21.832204	0.000916	20.813237
126.034558	-2.986400	3.834300	-11.450000	21.852224	0.000913	20.795343
127.038780	-2.996800	3.834600	-11.489000	21.867083	0.000917	20.806422
128.034980	-2.972200	3.834800	-11.397000	21.874439	0.000918	20.791974
129.040269	-2.983600	3.834200	-11.439000	21.874637	0.000916	20.784586
130.038129	-3.005300	3.832800	-11.518000	21.911115	0.000917	20.793124
131.036635	-3.001400	3.833100	-11.503000	21.923580	0.000918	20.789954
132.036449	-3.002200	3.832500	-11.505000	21.922880	0.000917	20.792573
133.036674	-3.019000	3.832200	-11.569000	21.930834	0.000918	20.813810
134.036466	-3.014700	3.831400	-11.549000	21.951277	0.000917	20.819574
135.037647	-2.998400	3.832300	-11.489000	21.956014	0.000917	20.802031
136.039800	-3.029400	3.830700	-11.601000	21.941230	0.000918	20.779172
137.036950	-2.992100	3.831900	-11.464000	21.969453	0.000918	20.820225
138.037130	-3.007400	3.830600	-11.519000	21.977131	0.000918	20.798513
139.038278	-3.016800	3.831100	-11.557000	21.983539	0.000919	20.786910
140.041102	-2.995400	3.831500	-11.476000	21.990619	0.000920	20.794472
141.042148	-3.009200	3.831300	-11.527000	21.999742	0.000919	20.803131
142.040152	-3.009800	3.831200	-11.531000	22.000715	0.000921	20.793673
143.039591	-3.003800	3.830100	-11.504000	21.994034	0.000920	20.812589
144.039739	-3.009300	3.829100	-11.522000	21.992665	0.000920	20.789408
145.040617	-3.017800	3.829300	-11.555000	22.015351	0.000920	20.794574
146.043461	-3.004800	3.829100	-11.504000	22.016125	0.000920	20.765951
147.041981	-3.012600	3.829000	-11.534000	22.017273	0.000922	20.774213
148.047125	-3.009500	3.828400	-11.520000	22.048088	0.000922	20.787991
149.043139	-2.999900	3.830100	-11.488000	22.018474	0.000922	20.764035
150.043749	-3.015000	3.827200	-11.537000	22.004766	0.000924	20.769753
151.044668	-3.014500	3.829000	-11.541000	22.016957	0.000923	20.796656
152.044254	-3.019400	3.827200	-11.555000	22.042460	0.000925	20.803694
153.044359	-2.980300	3.828700	-11.409000	22.055226	0.000923	20.779490
154.045092	-3.014200	3.827200	-11.535000	22.074323	0.000923	20.773003
155.045269	-3.012400	3.828600	-11.532000	22.065373	0.000925	20.781588
156.045252	-3.003300	3.826800	-11.491000	22.065726	0.000923	20.775303
157.053675	-2.994700	3.828000	-11.461000	22.083823	0.000923	20.772557
158.046068	-3.022700	3.826300	-11.563000	22.098359	0.000924	20.757238
159.046887	-3.035100	3.825200	-11.608000	22.097663	0.000924	20.788309
160.046332	-3.016400	3.826600	-11.542000	22.106216	0.000926	20.773164
161.046006	-3.006800	3.826600	-11.504000	22.103454	0.000925	20.750958
162.052408	-3.009000	3.825400	-11.510000	22.105649	0.000925	20.777812
163.047844	-3.025200	3.825100	-11.570000	22.123649	0.000925	20.760745
164.049172	-3.017600	3.826600	-11.544000	22.118839	0.000926	20.774421
165.049634	-3.013900	3.825000	-11.527000	22.114954	0.000926	20.770058
166.049189	-3.003100	3.824600	-11.484000	22.126199	0.000929	20.765669
167.050770	-2.997400	3.825900	-11.467000	22.132634	0.000926	20.776380
168.051728	-3.019100	3.823300	-11.542000	22.146722	0.000930	20.778155
169.049582	-3.015600	3.822800	-11.526000	22.144651	0.000929	20.751425
170.050560	-2.998300	3.824800	-11.466000	22.163774	0.000930	20.768675
171.050261	-3.013200	3.823000	-11.518000	22.164498	0.000931	20.766555
172.050673	-3.017300	3.822800	-11.534000	22.175743	0.000930	20.759796
173.051368	-3.014300	3.822100	-11.518000	22.180033	0.000930	20.765513
174.049116	-3.000200	3.823600	-11.471000	22.185967	0.000930	20.739685
175.052869	-3.002100	3.822200	-11.473000	22.191328	0.000930	20.775874
176.050127	-2.994600	3.822700	-11.446000	22.196788	0.000931	20.744355
177.051420	-2.997500	3.822900	-11.457000	22.209853	0.000930	20.762653
178.053688	-2.992000	3.822900	-11.437000	22.222667	0.000935	20.770741
179.055567	-3.000200	3.822900	-11.468000	22.221095	0.000932	20.746407
180.050760	-2.986800	3.821600	-11.414000	22.231566	0.000933	20.751675
181.050454	-2.998300	3.821100	-11.456000	22.249390	0.000932	20.735383
182.050393	-3.005200	3.820300	-11.480000	22.230429	0.000936	20.743899
183.054806	-2.975200	3.822900	-11.373000	22.238929	0.000935	20.749090
184.053458	-2.982100	3.821500	-11.395000	22.233051	0.000935	20.743205
185.052613	-2.980500	3.821900	-11.390000	22.210016	0.000936	20.735314
186.051620	-3.013900	3.820700	-11.513000	22.222982	0.000937	20.765367
187.052333	-2.988500	3.821100	-11.417000	22.247363	0.000935	20.737146
188.052868	-3.020300	3.819400	-11.534000	22.234400	0.000936	20.735547
189.055031	-3.010300	3.818200	-11.494000	22.264788	0.000936	20.747007
190.052375	-3.021000	3.818100	-11.533000	22.264915	0.000937	20.736702
191.052350	-3.000900	3.818100	-11.456000	22.259409	0.000939	20.763907
192.050980	-2.994800	3.818200	-11.433000	22.270080	0.000936	20.748513
193.052429	-2.989100	3.818500	-11.413000	22.283439	0.000941	20.752880
194.054607	-2.993100	3.818200	-11.427000	22.301461	0.000938	20.745321
195.052596	-2.988900	3.817800	-11.410000	22.326561	0.000941	20.764291
196.051161	-2.986700	3.817900	-11.402000	22.345229	0.000943	20.741732
197.055079	-2.999500	3.818300	-11.452000	22.348095	0.000943	20.734644
198.054191	-3.003500	3.818200	-11.468000	22.331051	0.000942	20.748398
199.053110	-2.998300	3.817400	-11.445000	22.328610	0.000943	20.760653
200.054865	-2.993700	3.817900	-11.430000	22.332552	0.000944	20.752272
201.054190	-2.987500	3.816900	-11.402000	22.323057	0.000944	20.745609
202.058179	-2.987600	3.816400	-11.401000	22.365373	0.000945	20.756689
203.054110	-2.983900	3.816600	-11.388000	22.350500	0.000945	20.751277
204.053839	-3.005300	3.816300	-11.467000	22.365126	0.000945	20.754070
205.058809	-3.011300	3.814600	-11.486000	22.385112	0.000948	20.744211
206.056017	-3.000500	3.815600	-11.448000	22.374893	0.000946	20.743461
207.056777	-2.977800	3.816700	-11.363000	22.397098	0.000946	20.755740
208.057517	-2.989700	3.815100	-11.405000	22.399441	0.000948	20.741016
209.060565	-3.021600	3.813900	-11.523000	22.421920	0.000950	20.746458
210.063223	-2.989600	3.815300	-11.405000	22.433157	0.000946	20.754392
211.062619	-3.011500	3.814200	-11.486000	22.445365	0.000949	20.736745
212.067858	-3.001400	3.813800	-11.446000	22.450425	0.000949	20.736123
213.060470	-2.999500	3.813800	-11.438000	22.452467	0.000951	20.729633
214.060555	-2.990800	3.815400	-11.409000	22.465501	0.000951	20.769240
215.062995	-3.008900	3.813400	-11.473000	22.471205	0.000953	20.736544
216.063893	-2.991900	3.813400	-11.408000	22.497768	0.000951	20.758880
217.062411	-2.990700	3.813800	-11.405000	22.489744	0.000951	20.740412
218.064921	-2.984700	3.813400	-11.381000	22.492136	0.000951	20.752291
219.062897	-3.009600	3.813200	-11.475000	22.498835	0.000955	20.756156
220.063653	-3.005900	3.812200	-11.458000	22.508803	0.000954	20.747171
221.066795	-3.010300	3.812700	-11.476000	22.503072	0.000952	20.746173
222.063532	-2.994300	3.813400	-11.417000	22.522560	0.000953	20.751941
223.065274	-2.981200	3.812600	-11.365000	22.520914	0.000955	20.770681
224.063709	-3.002900	3.812900	-11.448000	22.517724	0.000953	20.740458
225.065161	-2.998200	3.812200	-11.428000	22.531327	0.000957	20.766885
226.069283	-3.016700	3.810500	-11.494000	22.538852	0.000955	20.745024
227.064122	-2.995400	3.811300	-11.416000	22.568430	0.000956	20.749517
228.066527	-2.987900	3.812000	-11.388000	22.575835	0.000957	20.762624
229.065281	-3.009500	3.810900	-11.467000	22.568854	0.000956	20.760374
230.065100	-2.998900	3.809700	-11.424000	22.593546	0.000957	20.766138
231.068378	-3.011200	3.808400	-11.467000	22.610193	0.000957	20.760051
232.070049	-3.023100	3.808800	-11.514000	22.611740	0.000960	20.769662
233.067401	-2.990300	3.809700	-11.391000	22.620088	0.000960	20.752418
234.066867	-3.005800	3.809700	-11.450000	22.635162	0.000959	20.769888
235.072632	-3.005400	3.808200	-11.443000	22.624623	0.000958	20.741788
236.070299	-3.008700	3.808800	-11.458000	22.626047	0.000959	20.750326
237.069849	-3.007000	3.809200	-11.452000	22.601557	0.000959	20.758040
238.068487	-2.979400	3.808500	-11.345000	22.588478	0.000962	20.759639
239.069970	-3.003800	3.808200	-11.436000	22.621415	0.000961	20.768447
240.068083	-2.997600	3.808800	-11.416000	22.617631	0.000963	20.759441
241.069230	-3.003800	3.807400	-11.435000	22.634623	0.000963	20.762236
242.070142	-3.009000	3.806500	-11.453000	22.665694	0.000962	20.780081
243.071437	-2.991900	3.807700	-11.391000	22.645094	0.000963	20.766085
244.069905	-2.997700	3.806300	-11.410000	22.654660	0.000964	20.767607
245.070524	-3.014000	3.807100	-11.472000	22.667046	0.000964	20.768633
246.070239	-2.980600	3.807100	-11.346000	22.674248	0.000966	20.764942
247.071732	-3.018900	3.805200	-11.486000	22.708232	0.000966	20.754885
248.073145	-3.022100	3.805900	-11.501000	22.704597	0.000964	20.764520
249.071969	-2.983200	3.805900	-11.353000	22.708210	0.000966	20.773830
250.073171	-3.010900	3.804800	-11.454000	22.682478	0.000968	20.761805
251.074504	-2.966300	3.805500	-11.287000	22.690600	0.000966	20.777053
252.081719	-2.974800	3.804700	-11.317000	22.720051	0.000967	20.771939
253.078625	-3.004400	3.803800	-11.427000	22.748851	0.000969	20.769494
254.074718	-2.995300	3.803900	-11.393000	22.761479	0.000968	20.740418
255.076967	-3.003500	3.804000	-11.424000	22.756424	0.000970	20.758588
256.075638	-2.967900	3.804500	-11.290000	22.775209	0.000969	20.771716
257.074771	-2.962400	3.802600	-11.263000	22.769207	0.000971	20.754798
258.073666	-3.009600	3.803000	-11.443000	22.807946	0.000972	20.761362
259.077819	-2.968400	3.806200	-11.297000	22.785626	0.000973	20.757969
260.075866	-2.980700	3.804100	-11.338000	22.822248	0.000969	20.761464
261.076615	-2.987700	3.802700	-11.361000	22.831964	0.000971	20.780208
262.076612	-2.995900	3.802600	-11.391000	22.800231	0.000970	20.768806
263.080063	-2.998400	3.801600	-11.397000	22.826885	0.000973	20.762317
264.080321	-2.986000	3.803700	-11.357000	22.837202	0.000973	20.770756
265.077043	-2.974500	3.802200	-11.308000	22.845396	0.000972	20.776120
266.080422	-2.974000	3.803300	-11.309000	22.849133	0.000977	20.773226
267.077045	-3.012700	3.800800	-11.450000	22.870710	0.000975	20.766866
268.078906	-3.001600	3.802100	-11.412000	22.850878	0.000976	20.755059
269.078787	-2.970400	3.801900	-11.292000	22.843760	0.000977	20.772584
270.076826	-2.989300	3.802100	-11.365000	22.839176	0.000978	20.800234
271.079770	-2.978100	3.800300	-11.316000	22.817032	0.000976	20.786112
272.087576	-2.973300	3.800700	-11.300000	22.812051	0.000977	20.751724
