LabVIEW Measurement	
Writer_Version	2
Reader_Version	2
Separator	Tab
Decimal_Separator	.
Multi_Headings	No
X_Columns	One
Time_Pref	Absolute
Operator	admin
Description	Clolumns are: time, Current, Voltage, Power, Battery Temp, and Chamber Temp
Date	2024/08/16
Time	13:06:06.104549407958984375
***End_of_Header***	
	
Channels	6						
Samples	1	1	1	1	1	1	
Date	2024/09/02	2024/09/02	2024/09/02	2024/09/02	2024/09/02	2024/09/02	
Time	07:14:43.0486063957214355469	07:14:43.05474090576171875	07:14:43.0611209869384765625	07:14:43.0319461822509765625	07:14:43.0319461822509765625	07:14:43.0319461822509765625	
X_Dimension	Time	Time	Time	Time	Time	Time	
X0	0.0000000000000000E+0	0.0000000000000000E+0	0.0000000000000000E+0	0.0000000000000000E+0	0.0000000000000000E+0	0.0000000000000000E+0	
Delta_X	1.000000	1.000000	1.000000	1.000000	1.000000	1.000000	
***End_of_Header***							
X_Value	Untitled	Untitled 1	Untitled 2	Untitled 3	Untitled 4	Untitled 5	Comment
0.000000	0.023704	4.104400	0.097241	20.967475	0.000938	20.774507
0.997548	-3.010300	3.938100	-11.854000	20.957694	0.000939	20.752870
2.001773	-3.007500	3.929600	-11.817000	20.992776	0.000936	20.770415
2.998246	-2.989700	3.925400	-11.734000	20.982496	0.000935	20.748752
4.001171	-2.990200	3.921500	-11.724000	20.974836	0.000934	20.750100
5.000314	-2.997100	3.917800	-11.741000	20.959740	0.000933	20.781944
6.001402	-2.989200	3.914000	-11.699000	20.981872	0.000932	20.758085
7.002466	-3.006900	3.911800	-11.761000	20.992076	0.000933	20.758808
8.001308	-2.994700	3.909100	-11.705000	20.970143	0.000931	20.752044
9.003854	-2.998000	3.909000	-11.718000	20.983593	0.000931	20.758859
10.001770	-3.009600	3.905700	-11.754000	20.964230	0.000930	20.776951
11.001590	-2.998400	3.905200	-11.708000	20.991577	0.000930	20.751197
12.001101	-3.007800	3.901800	-11.735000	20.987759	0.000928	20.727936
13.002633	-2.989400	3.900500	-11.659000	21.003603	0.000928	20.764174
14.003728	-3.007200	3.899700	-11.725000	20.979325	0.000927	20.773557
15.007354	-3.015300	3.898100	-11.753000	21.001583	0.000926	20.746505
16.003601	-3.001000	3.897300	-11.695000	21.017227	0.000926	20.760730
17.002328	-2.989400	3.896900	-11.648000	21.005100	0.000926	20.770886
18.010703	-3.001600	3.896300	-11.694000	21.012986	0.000925	20.770239
19.005077	-2.985500	3.896100	-11.631000	21.018324	0.000926	20.754241
20.005411	-2.991100	3.892700	-11.643000	21.020695	0.000925	20.754715
21.002874	-3.011900	3.891000	-11.718000	21.018149	0.000923	20.746954
22.003518	-2.991100	3.891500	-11.639000	21.040506	0.000924	20.757461
23.004164	-3.007600	3.890400	-11.700000	21.028680	0.000923	20.755590
24.009632	-3.000500	3.888900	-11.667000	21.048215	0.000921	20.751421
25.005915	-3.007300	3.887500	-11.689000	21.037137	0.000922	20.759307
26.006778	-3.018000	3.888100	-11.733000	21.037961	0.000921	20.737371
27.006298	-3.001800	3.886600	-11.665000	21.070521	0.000919	20.753818
28.007862	-2.997800	3.887500	-11.652000	21.091579	0.000921	20.742164
29.009367	-3.008100	3.886800	-11.691000	21.070846	0.000918	20.755565
30.007567	-3.014700	3.885400	-11.712000	21.055027	0.000919	20.759184
31.011436	-2.977000	3.885000	-11.565000	21.077158	0.000920	20.765198
32.011808	-3.010200	3.883400	-11.688000	21.090681	0.000918	20.776354
33.010025	-3.002600	3.884500	-11.663000	21.105975	0.000918	20.751822
34.012185	-3.009500	3.883300	-11.686000	21.069100	0.000918	20.737223
35.010293	-2.996300	3.881600	-11.630000	21.078656	0.000918	20.737298
36.013857	-2.994500	3.882500	-11.625000	21.072668	0.000916	20.746008
37.010397	-3.002700	3.882800	-11.658000	21.092778	0.000917	20.745734
38.009662	-2.970700	3.883600	-11.535000	21.106599	0.000916	20.759086
39.010667	-2.971300	3.882200	-11.534000	21.118575	0.000915	20.751624
40.010248	-2.984700	3.881700	-11.585000	21.123390	0.000916	20.746009
41.008818	-2.998100	3.881200	-11.634000	21.112838	0.000917	20.765326
42.009952	-2.991000	3.879900	-11.603000	21.136689	0.000915	20.768321
43.009635	-2.994600	3.878400	-11.613000	21.140431	0.000915	20.765426
44.008922	-3.007600	3.878500	-11.664000	21.136240	0.000915	20.763130
45.010758	-3.001400	3.879100	-11.642000	21.148963	0.000913	20.756891
46.009449	-2.994800	3.879800	-11.617000	21.148091	0.000915	20.748906
47.010819	-3.008000	3.878500	-11.665000	21.167325	0.000914	20.749180
48.009279	-2.999800	3.879100	-11.635000	21.158170	0.000913	20.755669
49.009556	-2.984900	3.876700	-11.570000	21.178702	0.000913	20.771467
50.011650	-3.003900	3.876200	-11.642000	21.181396	0.000913	20.750453
51.009637	-2.980600	3.876800	-11.554000	21.187582	0.000911	20.767547
52.011560	-3.007600	3.874800	-11.653000	21.207940	0.000913	20.754721
53.009667	-3.002000	3.876600	-11.637000	21.195840	0.000911	20.740720
54.009326	-2.986500	3.875400	-11.572000	21.242190	0.000912	20.757690
55.014230	-3.004400	3.874200	-11.639000	21.236802	0.000911	20.770318
56.010118	-3.004000	3.874500	-11.638000	21.223606	0.000911	20.749530
57.011889	-3.019300	3.873200	-11.693000	21.245459	0.000911	20.763805
58.010919	-3.017400	3.873800	-11.688000	21.236004	0.000912	20.779952
59.010659	-2.988800	3.874500	-11.579000	21.253042	0.000910	20.772814
60.013186	-2.992200	3.873700	-11.589000	21.264691	0.000910	20.752699
61.012642	-3.020000	3.872200	-11.693000	21.263271	0.000910	20.767873
62.010139	-2.998700	3.873600	-11.615000	21.282653	0.000910	20.767349
63.010250	-3.015300	3.872600	-11.676000	21.297544	0.000911	20.770393
64.010863	-3.036000	3.870500	-11.750000	21.289487	0.000910	20.759487
65.010485	-2.998500	3.871000	-11.606000	21.313734	0.000910	20.778055
66.011403	-2.987000	3.871800	-11.564000	21.296547	0.000912	20.771766
67.010571	-2.991600	3.870800	-11.579000	21.293853	0.000910	20.775235
68.012558	-2.976700	3.870200	-11.518000	21.296796	0.000910	20.762532
69.010537	-2.989700	3.871500	-11.574000	21.323212	0.000911	20.772839
70.010501	-3.003600	3.869600	-11.622000	21.324459	0.000909	20.775035
71.014038	-2.995200	3.869500	-11.589000	21.351648	0.000909	20.773313
72.012325	-3.001100	3.868600	-11.610000	21.337480	0.000911	20.755345
73.014911	-3.010000	3.868800	-11.644000	21.334013	0.000911	20.749031
74.011998	-2.977900	3.870900	-11.525000	21.343841	0.000910	20.763132
75.011854	-2.997900	3.867400	-11.593000	21.349603	0.000909	20.771267
76.015134	-2.992000	3.867800	-11.571000	21.365891	0.000908	20.760536
77.012929	-2.989000	3.868100	-11.561000	21.377415	0.000910	20.765428
78.012324	-2.989600	3.866900	-11.559000	21.366116	0.000910	20.777357
79.014001	-2.986000	3.867400	-11.548000	21.365192	0.000910	20.772639
80.015191	-2.987000	3.866200	-11.548000	21.387068	0.000909	20.773189
81.016396	-3.029600	3.866400	-11.712000	21.397344	0.000908	20.766401
82.017385	-2.984200	3.867700	-11.542000	21.418047	0.000909	20.765303
83.014417	-2.990500	3.867400	-11.564000	21.432438	0.000908	20.781125
84.017351	-2.986900	3.867700	-11.552000	21.425879	0.000911	20.789262
85.014014	-3.003700	3.866800	-11.614000	21.444286	0.000910	20.765004
86.014526	-2.995200	3.864700	-11.575000	21.446231	0.000910	20.770743
87.014887	-2.997700	3.865000	-11.585000	21.445109	0.000911	20.792855
88.013976	-3.003900	3.865200	-11.609000	21.437552	0.000908	20.791931
89.014514	-3.002000	3.865300	-11.602000	21.463242	0.000911	20.767375
90.016990	-3.002600	3.864600	-11.602000	21.468629	0.000908	20.772292
91.015454	-2.998800	3.863100	-11.583000	21.479203	0.000909	20.774338
92.015777	-3.013200	3.862500	-11.638000	21.464014	0.000909	20.781425
93.017971	-2.979100	3.864400	-11.511000	21.489404	0.000910	20.777432
94.016148	-2.988100	3.863000	-11.542000	21.495989	0.000908	20.778331
95.016623	-2.978300	3.864900	-11.510000	21.500279	0.000908	20.773140
96.016079	-3.000200	3.864000	-11.592000	21.509656	0.000910	20.767824
97.018266	-2.985000	3.864100	-11.533000	21.519708	0.000911	20.766977
98.019915	-2.987100	3.863300	-11.538000	21.510130	0.000909	20.779204
99.020875	-2.985900	3.862600	-11.533000	21.515641	0.000910	20.782822
100.020563	-2.983100	3.862400	-11.520000	21.527064	0.000907	20.788088
101.018229	-3.002200	3.861900	-11.593000	21.539608	0.000908	20.786890
102.019907	-2.993200	3.861200	-11.556000	21.540357	0.000908	20.791906
103.022402	-3.001700	3.862300	-11.593000	21.542127	0.000909	20.781824
104.021701	-3.015500	3.861600	-11.643000	21.557988	0.000909	20.808601
105.021355	-2.979000	3.861000	-11.501000	21.541877	0.000909	20.792954
106.022688	-2.981500	3.861100	-11.511000	21.575519	0.000911	20.789634
107.021223	-2.998000	3.861100	-11.574000	21.552250	0.000909	20.770616
108.023418	-3.014800	3.860200	-11.637000	21.588561	0.000909	20.795573
109.023691	-2.996600	3.860100	-11.567000	21.581378	0.000907	20.769418
110.023834	-3.012200	3.859100	-11.623000	21.589483	0.000908	20.790331
111.026575	-3.012400	3.859100	-11.623000	21.598036	0.000909	20.795097
112.025357	-2.988400	3.860500	-11.535000	21.619606	0.000909	20.784439
113.025484	-2.996600	3.858900	-11.563000	21.631975	0.000910	20.804404
114.028992	-2.995500	3.859100	-11.558000	21.612873	0.000910	20.777227
115.030972	-3.007200	3.859700	-11.605000	21.616663	0.000911	20.783865
116.028974	-3.025300	3.858900	-11.674000	21.622448	0.000908	20.787283
117.026974	-2.997900	3.858900	-11.568000	21.627709	0.000910	20.803928
118.027684	-3.014800	3.858300	-11.631000	21.637359	0.000909	20.792722
119.028317	-3.019900	3.858300	-11.650000	21.679129	0.000909	20.791375
120.031687	-2.989000	3.857400	-11.529000	21.642446	0.000911	20.794494
121.028840	-3.001000	3.857900	-11.576000	21.674864	0.000911	20.789477
122.027258	-2.996500	3.857500	-11.558000	21.672022	0.000911	20.796117
123.027379	-2.986300	3.856600	-11.516000	21.703839	0.000913	20.794767
124.029323	-2.996700	3.857200	-11.557000	21.701943	0.000910	20.789077
125.038868	-2.997600	3.857500	-11.562000	21.711243	0.000911	20.791272
126.030978	-3.006400	3.856300	-11.593000	21.698177	0.000913	20.819921
127.032229	-3.017300	3.856300	-11.633000	21.702117	0.000914	20.803475
128.031449	-3.008000	3.855500	-11.595000	21.724210	0.000914	20.794292
129.033526	-2.986600	3.855300	-11.513000	21.711367	0.000913	20.796612
130.036696	-3.012800	3.854500	-11.612000	21.708150	0.000913	20.793866
131.032459	-2.991700	3.855500	-11.533000	21.729246	0.000914	20.804074
132.035822	-2.999300	3.855500	-11.563000	21.736228	0.000912	20.812483
133.032110	-2.993200	3.856700	-11.542000	21.728746	0.000913	20.806893
134.033806	-2.994000	3.854100	-11.538000	21.737848	0.000916	20.801303
135.033994	-2.999400	3.854800	-11.562000	21.736675	0.000913	20.793965
136.036320	-3.020600	3.853400	-11.638000	21.755451	0.000914	20.803748
137.032877	-3.007200	3.853200	-11.584000	21.741787	0.000916	20.814254
138.035763	-2.998500	3.853300	-11.553000	21.744505	0.000914	20.807017
139.033106	-2.996300	3.854000	-11.546000	21.748769	0.000914	20.799430
140.034430	-3.002100	3.853100	-11.565000	21.784250	0.000914	20.791320
141.036748	-2.986400	3.854900	-11.511000	21.782453	0.000915	20.812755
142.033935	-3.041800	3.852000	-11.715000	21.808211	0.000915	20.818146
143.038890	-3.024400	3.852500	-11.650000	21.798612	0.000915	20.793365
144.035134	-3.000200	3.852400	-11.558000	21.794823	0.000918	20.801901
145.038887	-3.007000	3.852400	-11.583000	21.815990	0.000916	20.803173
146.036911	-3.035700	3.850600	-11.687000	21.802675	0.000915	20.812606
147.042337	-3.016900	3.851000	-11.617000	21.803922	0.000916	20.805318
148.035862	-2.997600	3.853000	-11.548000	21.822025	0.000916	20.806842
149.034886	-3.007600	3.851900	-11.584000	21.832621	0.000918	20.808438
150.036763	-2.978500	3.852900	-11.475000	21.839976	0.000919	20.818171
151.035602	-2.991500	3.850800	-11.519000	21.843117	0.000919	20.817522
152.039472	-3.006300	3.852600	-11.581000	21.874333	0.000919	20.823162
153.039493	-2.989600	3.852000	-11.515000	21.875580	0.000918	20.808763
154.040846	-2.991500	3.851200	-11.520000	21.905199	0.000921	20.815651
155.035271	-3.000600	3.850100	-11.552000	21.891886	0.000920	20.816076
156.037385	-3.001400	3.851500	-11.558000	21.894405	0.000921	20.818597
157.039080	-2.993900	3.849900	-11.524000	21.920134	0.000920	20.807367
158.037430	-2.996900	3.850600	-11.539000	21.919784	0.000921	20.808913
159.036638	-3.008300	3.849300	-11.579000	21.939131	0.000920	20.814055
160.036194	-3.044100	3.848100	-11.714000	21.922926	0.000923	20.808265
161.037058	-3.003300	3.850400	-11.562000	21.950698	0.000924	20.818995
162.036844	-3.003700	3.850200	-11.564000	21.974582	0.000923	20.827730
163.038279	-2.992400	3.849900	-11.519000	21.951647	0.000923	20.823264
164.037246	-3.007100	3.849100	-11.572000	21.967303	0.000923	20.818547
165.037924	-2.990600	3.849700	-11.512000	21.970967	0.000922	20.813207
166.038677	-3.019900	3.847300	-11.617000	21.984504	0.000921	20.829127
167.037134	-2.993900	3.847300	-11.516000	21.978172	0.000924	20.838910
168.037773	-2.993800	3.849300	-11.523000	21.974807	0.000923	20.845024
169.037547	-2.994600	3.848500	-11.524000	21.994377	0.000925	20.845648
170.039037	-2.999300	3.847000	-11.537000	22.001607	0.000924	20.841506
171.036687	-2.993200	3.848500	-11.518000	22.016265	0.000925	20.851438
172.038167	-2.991900	3.848000	-11.511000	22.042266	0.000927	20.823888
173.042368	-3.002100	3.845900	-11.544000	22.046478	0.000926	20.831898
174.040344	-3.000300	3.845400	-11.537000	22.044434	0.000927	20.853084
175.039979	-2.982500	3.847300	-11.474000	22.049669	0.000927	20.836989
176.040481	-2.987200	3.846800	-11.490000	22.057820	0.000927	20.833295
177.041376	-2.988900	3.844500	-11.490000	22.055153	0.000930	20.826358
178.044025	-2.975500	3.846400	-11.443000	22.027806	0.000928	20.839283
179.041634	-3.002700	3.845800	-11.547000	22.034911	0.000927	20.822689
180.041851	-3.015700	3.845400	-11.595000	22.048671	0.000931	20.836464
181.039829	-2.973400	3.845800	-11.434000	22.069336	0.000930	20.832021
182.042727	-3.008700	3.845000	-11.568000	22.093092	0.000929	20.817872
183.042953	-3.016300	3.843800	-11.593000	22.087831	0.000930	20.854804
184.049655	-3.004800	3.845400	-11.552000	22.095309	0.000932	20.832893
185.041790	-2.993300	3.844600	-11.507000	22.084441	0.000931	20.848565
186.043989	-3.027900	3.843800	-11.637000	22.107997	0.000932	20.842751
187.046646	-2.998500	3.844100	-11.526000	22.116248	0.000933	20.839631
188.041954	-3.017200	3.842800	-11.594000	22.115175	0.000932	20.856101
189.045967	-2.991900	3.843300	-11.498000	22.111960	0.000933	20.834390
190.043055	-2.997400	3.842200	-11.516000	22.115923	0.000933	20.852107
191.045922	-3.016400	3.841900	-11.588000	22.136289	0.000933	20.860643
192.044122	-3.019700	3.841500	-11.600000	22.159071	0.000936	20.847890
193.059871	-2.988600	3.842300	-11.481000	22.159343	0.000935	20.835836
194.047428	-2.996700	3.843300	-11.515000	22.172829	0.000937	20.856923
195.045696	-3.029200	3.840500	-11.632000	22.172903	0.000934	20.858419
196.048798	-2.983800	3.843500	-11.466000	22.176119	0.000935	20.845993
197.047833	-2.983200	3.843400	-11.465000	22.196782	0.000936	20.844871
198.046997	-3.013800	3.841800	-11.577000	22.195236	0.000937	20.841900
199.049273	-3.007200	3.841600	-11.551000	22.197255	0.000937	20.849611
200.050263	-3.023800	3.841600	-11.614000	22.214379	0.000938	20.868177
201.047311	-2.993900	3.841500	-11.500000	22.206029	0.000937	20.851758
202.047761	-3.010200	3.840200	-11.559000	22.228561	0.000938	20.837333
203.046865	-2.989300	3.842400	-11.484000	22.222056	0.000938	20.841252
204.048787	-2.993200	3.839800	-11.491000	22.233272	0.000939	20.869550
205.050992	-3.007200	3.841100	-11.549000	22.245285	0.000940	20.855501
206.049089	-3.029200	3.839500	-11.630000	22.253385	0.000940	20.835637
207.050973	-2.991700	3.841800	-11.493000	22.267841	0.000942	20.868127
208.048633	-3.024300	3.839100	-11.609000	22.277412	0.000942	20.844521
209.048851	-2.992700	3.840400	-11.492000	22.287978	0.000941	20.870747
210.053197	-3.007800	3.839400	-11.547000	22.297923	0.000942	20.866006
211.049398	-3.013500	3.838300	-11.565000	22.293461	0.000942	20.859168
212.050524	-2.998700	3.839000	-11.509000	22.291742	0.000943	20.863136
213.053473	-2.986900	3.839000	-11.466000	22.304652	0.000944	20.848563
214.051131	-2.980700	3.838800	-11.442000	22.292240	0.000945	20.851308
215.051793	-3.013000	3.837100	-11.560000	22.336552	0.000944	20.874814
216.055837	-2.982300	3.838600	-11.447000	22.315293	0.000944	20.852106
217.053059	-3.003900	3.837200	-11.525000	22.328551	0.000945	20.886242
218.052957	-2.999700	3.837100	-11.509000	22.344301	0.000948	20.874987
219.052474	-2.995900	3.838600	-11.498000	22.359479	0.000947	20.856047
220.055250	-3.005200	3.836900	-11.530000	22.357510	0.000944	20.876360
221.053344	-2.989900	3.837300	-11.472000	22.383826	0.000947	20.861936
222.053123	-2.996900	3.837500	-11.499000	22.374107	0.000947	20.880651
223.053197	-2.998700	3.835800	-11.501000	22.336425	0.000948	20.868049
224.052750	-2.991800	3.835900	-11.475000	22.381531	0.000945	20.884292
225.051445	-3.006700	3.835600	-11.531000	22.372361	0.000950	20.870368
226.055228	-2.991000	3.837100	-11.475000	22.383275	0.000947	20.876082
227.053185	-2.996100	3.834500	-11.488000	22.405106	0.000949	20.878503
228.062062	-2.989700	3.836200	-11.468000	22.399473	0.000949	20.879974
229.055570	-2.985600	3.836500	-11.454000	22.383424	0.000952	20.867222
230.053186	-3.012000	3.834900	-11.548000	22.389404	0.000952	20.888857
231.058282	-3.005300	3.834000	-11.521000	22.406426	0.000951	20.885040
232.052742	-2.980700	3.833500	-11.426000	22.386240	0.000952	20.890429
233.053582	-3.013700	3.833700	-11.552000	22.392519	0.000954	20.881071
234.052446	-2.994500	3.835500	-11.484000	22.390126	0.000955	20.890053
235.054883	-2.977400	3.834200	-11.414000	22.383796	0.000951	20.879923
236.052649	-2.981300	3.835000	-11.433000	22.417638	0.000954	20.894844
237.056134	-3.006600	3.832900	-11.522000	22.388007	0.000954	20.896940
238.052933	-2.988700	3.835700	-11.462000	22.415420	0.000956	20.891201
239.053573	-2.979700	3.834800	-11.425000	22.431069	0.000955	20.892173
240.053970	-2.987000	3.833000	-11.447000	22.425138	0.000957	20.876278
241.053985	-3.000800	3.831700	-11.498000	22.471438	0.000957	20.902729
242.056342	-3.008400	3.832700	-11.530000	22.456586	0.000958	20.894968
243.054945	-2.994500	3.832900	-11.476000	22.460573	0.000957	20.903701
244.056459	-2.983500	3.831800	-11.431000	22.455191	0.000958	20.880769
245.053504	-2.995900	3.832000	-11.479000	22.459003	0.000960	20.879845
246.053674	-3.003600	3.832300	-11.511000	22.495559	0.000959	20.889902
247.055841	-2.994700	3.831800	-11.474000	22.505003	0.000960	20.893196
248.054960	-3.007300	3.832100	-11.524000	22.499845	0.000959	20.915055
249.055562	-2.997900	3.831300	-11.485000	22.521299	0.000961	20.893869
250.055454	-2.992100	3.831400	-11.462000	22.531789	0.000962	20.909115
251.055884	-3.013900	3.829300	-11.540000	22.533658	0.000960	20.891074
252.056331	-3.011400	3.829700	-11.530000	22.527803	0.000961	20.894219
253.054935	-3.022200	3.829200	-11.571000	22.547812	0.000960	20.879646
254.058697	-3.002600	3.829900	-11.498000	22.549855	0.000962	20.877899
255.059088	-2.993100	3.829700	-11.461000	22.553543	0.000963	20.892023
256.058584	-3.005500	3.828700	-11.507000	22.537198	0.000963	20.892248
257.057073	-3.014000	3.828500	-11.539000	22.544348	0.000964	20.903676
258.061317	-2.994800	3.828800	-11.465000	22.554864	0.000964	20.909465
259.062699	-2.985100	3.829400	-11.430000	22.538843	0.000965	20.906696
260.061079	-2.994800	3.827700	-11.462000	22.561617	0.000966	20.895842
261.059915	-2.987400	3.829100	-11.437000	22.563387	0.000966	20.884813
262.059990	-3.015100	3.827600	-11.539000	22.570139	0.000965	20.904851
263.061048	-3.011000	3.827200	-11.523000	22.558528	0.000966	20.894170
264.061312	-2.977300	3.828300	-11.397000	22.573802	0.000967	20.917053
265.060653	-3.005500	3.827500	-11.502000	22.577565	0.000966	20.920347
266.060942	-3.004400	3.826700	-11.495000	22.600836	0.000967	20.908095
267.061646	-3.023200	3.826400	-11.568000	22.600961	0.000969	20.928606
268.063023	-3.000300	3.826800	-11.481000	22.604674	0.000968	20.922843
269.066247	-2.986700	3.827600	-11.431000	22.618004	0.000970	20.917702
270.063584	-2.982700	3.825900	-11.410000	22.637612	0.000971	20.904626
271.064325	-2.998700	3.827300	-11.476000	22.670450	0.000970	20.901008
272.063656	-3.015500	3.824400	-11.531000	22.650344	0.000971	20.917852
