LabVIEW Measurement	
Writer_Version	2
Reader_Version	2
Separator	Tab
Decimal_Separator	.
Multi_Headings	No
X_Columns	One
Time_Pref	Absolute
Operator	admin
Description	Clolumns are: time, Current, Voltage, Power, Battery Temp, and Chamber Temp
Date	2024/08/16
Time	13:06:06.104549407958984375
***End_of_Header***	
	
Channels	6						
Samples	1	1	1	1	1	1	
Date	2024/09/17	2024/09/17	2024/09/17	2024/09/17	2024/09/17	2024/09/17	
Time	04:19:19.0344305038452148438	04:19:19.0404214859008789063	04:19:19.047313690185546875	04:19:19.0147485733032226563	04:19:19.0147485733032226563	04:19:19.0147485733032226563	
X_Dimension	Time	Time	Time	Time	Time	Time	
X0	0.0000000000000000E+0	0.0000000000000000E+0	0.0000000000000000E+0	0.0000000000000000E+0	0.0000000000000000E+0	0.0000000000000000E+0	
Delta_X	1.000000	1.000000	1.000000	1.000000	1.000000	1.000000	
***End_of_Header***							
X_Value	Untitled	Untitled 1	Untitled 2	Untitled 3	Untitled 4	Untitled 5	Comment
0.000000	-0.004457	4.089600	-0.018215	21.039132	0.000945	20.795442
0.995563	-3.008100	3.907400	-11.752000	21.049382	0.000944	20.815177
1.995317	-2.991500	3.902600	-11.673000	21.061616	0.000944	20.800862
2.999652	-3.009200	3.895300	-11.719000	21.056999	0.000942	20.803356
4.001177	-3.003900	3.891300	-11.688000	21.073786	0.000941	20.799759
5.000214	-2.964000	3.890400	-11.529000	21.061314	0.000940	20.809569
5.999852	-2.969800	3.886500	-11.541000	21.081273	0.000940	20.793497
7.001973	-2.978700	3.885100	-11.571000	21.063782	0.000939	20.811089
8.001009	-2.979200	3.881900	-11.564000	21.059042	0.000939	20.798761
9.000509	-2.973700	3.879300	-11.535000	21.074481	0.000937	20.816101
10.005081	-2.994600	3.877900	-11.611000	21.078200	0.000939	20.814130
10.998030	-3.014100	3.873500	-11.674000	21.080104	0.000937	20.818880
12.005053	-3.011000	3.872500	-11.659000	21.104869	0.000936	20.803822
13.007510	-2.987700	3.872600	-11.568000	21.095314	0.000936	20.839309
14.004616	-3.006700	3.870500	-11.637000	21.110687	0.000933	20.813435
15.003376	-3.002600	3.868700	-11.615000	21.102229	0.000934	20.819673
16.003569	-2.984600	3.868500	-11.545000	21.096164	0.000932	20.810762
17.005187	-3.002200	3.867900	-11.611000	21.107794	0.000932	20.802955
18.001226	-3.017500	3.865200	-11.663000	21.117226	0.000932	20.822820
19.000949	-3.011400	3.864700	-11.637000	21.127254	0.000932	20.790652
20.001738	-3.007800	3.864800	-11.624000	21.128725	0.000932	20.832426
21.007592	-2.982600	3.865300	-11.527000	21.159560	0.000932	20.835295
22.004580	-2.995600	3.863000	-11.571000	21.133187	0.000930	20.833570
23.008791	-2.993200	3.862100	-11.559000	21.143599	0.000929	20.814114
24.017002	-2.997100	3.861200	-11.570000	21.157893	0.000930	20.833153
25.005122	-2.996700	3.861600	-11.571000	21.173608	0.000930	20.821847
26.010376	-2.986300	3.860400	-11.528000	21.180964	0.000929	20.830627
27.011405	-3.026400	3.858600	-11.675000	21.176902	0.000929	20.826564
28.008047	-3.017400	3.857100	-11.638000	21.185458	0.000929	20.828959
29.008617	-3.020400	3.856600	-11.647000	21.192765	0.000928	20.818725
30.008257	-3.012800	3.854900	-11.612000	21.177670	0.000928	20.823066
31.007155	-3.001400	3.856600	-11.574000	21.216415	0.000930	20.830055
32.016662	-2.989000	3.856400	-11.526000	21.228191	0.000929	20.834723
33.010773	-2.999100	3.854800	-11.559000	21.208382	0.000929	20.815855
34.011281	-3.007700	3.853300	-11.588000	21.227415	0.000928	20.826360
35.010187	-2.970500	3.854300	-11.448000	21.240465	0.000930	20.828036
36.015324	-3.004600	3.852800	-11.576000	21.232481	0.000930	20.829532
37.008304	-2.993800	3.853800	-11.536000	21.265185	0.000927	20.825739
38.006725	-2.995900	3.852400	-11.541000	21.274215	0.000931	20.817229
39.008599	-2.998200	3.852000	-11.548000	21.244952	0.000927	20.809291
40.008354	-3.009200	3.850600	-11.586000	21.244183	0.000929	20.808048
41.017400	-2.991300	3.852600	-11.523000	21.269050	0.000928	20.814907
42.009385	-3.018200	3.849700	-11.618000	21.285548	0.000927	20.794902
43.009878	-3.016700	3.849500	-11.612000	21.278218	0.000927	20.805113
44.010462	-3.013800	3.850400	-11.604000	21.259603	0.000928	20.799766
45.010590	-2.985400	3.850200	-11.493000	21.291211	0.000926	20.818585
46.011442	-2.972100	3.850000	-11.442000	21.294185	0.000929	20.832466
47.013103	-2.985800	3.849000	-11.491000	21.311419	0.000928	20.790438
48.013063	-2.987600	3.850000	-11.500000	21.318504	0.000928	20.800845
49.012232	-2.979700	3.848100	-11.465000	21.315660	0.000926	20.795155
50.013299	-2.976200	3.848200	-11.451000	21.297552	0.000926	20.816868
51.011822	-3.009200	3.846400	-11.574000	21.343197	0.000929	20.822705
52.011929	-3.011300	3.845800	-11.578000	21.342601	0.000927	20.792237
53.014148	-3.003200	3.846700	-11.551000	21.341098	0.000929	20.773663
54.013336	-2.994200	3.847100	-11.518000	21.347063	0.000928	20.809029
55.017254	-3.009200	3.845000	-11.568000	21.367204	0.000928	20.830602
56.015847	-2.995200	3.845000	-11.515000	21.381495	0.000928	20.796062
57.016632	-2.981700	3.844000	-11.461000	21.378913	0.000929	20.781152
58.023223	-2.979700	3.845700	-11.458000	21.381667	0.000928	20.783906
59.018246	-3.009600	3.844000	-11.568000	21.381413	0.000927	20.801671
60.018017	-2.996000	3.844300	-11.516000	21.400549	0.000926	20.811808
61.018619	-2.998400	3.842800	-11.522000	21.414710	0.000926	20.806061
62.019278	-3.019000	3.842700	-11.599000	21.403156	0.000929	20.785019
63.017198	-3.014200	3.841800	-11.579000	21.425798	0.000928	20.795344
64.019250	-3.004200	3.841100	-11.538000	21.426795	0.000928	20.798712
65.020040	-2.995900	3.842200	-11.509000	21.444729	0.000928	20.767344
66.020613	-2.997000	3.840800	-11.510000	21.456495	0.000928	20.799505
67.021602	-3.012700	3.840500	-11.569000	21.445269	0.000927	20.799653
68.023679	-3.024000	3.839100	-11.608000	21.455564	0.000930	20.788617
69.024602	-3.000900	3.840400	-11.523000	21.483498	0.000928	20.804713
70.019886	-3.005300	3.841100	-11.543000	21.483498	0.000928	20.783851
71.022139	-3.003000	3.840800	-11.533000	21.472436	0.000929	20.772308
72.020082	-3.003000	3.839600	-11.529000	21.503123	0.000929	20.784521
73.019855	-3.016900	3.839200	-11.581000	21.508720	0.000929	20.796286
74.023342	-3.004600	3.839300	-11.535000	21.479839	0.000930	20.775447
75.021870	-2.977300	3.838800	-11.428000	21.518197	0.000929	20.774475
76.021036	-2.991600	3.838900	-11.483000	21.511563	0.000928	20.794389
77.021251	-2.984600	3.838700	-11.456000	21.507961	0.000930	20.760912
78.021007	-2.992400	3.839300	-11.487000	21.535150	0.000930	20.781481
79.024554	-2.995200	3.837400	-11.493000	21.529415	0.000931	20.777639
80.021106	-2.996200	3.837200	-11.496000	21.541735	0.000930	20.761043
81.023152	-2.979300	3.838100	-11.433000	21.536539	0.000930	20.768646
82.023837	-3.000800	3.837900	-11.514000	21.543166	0.000930	20.763897
83.020864	-2.999300	3.836800	-11.506000	21.562748	0.000929	20.782070
84.024804	-3.005400	3.836000	-11.528000	21.569006	0.000930	20.777427
85.022928	-2.977300	3.838600	-11.426000	21.562765	0.000931	20.766914
86.020562	-3.015500	3.834900	-11.563000	21.581596	0.000933	20.762524
87.024736	-2.997400	3.835200	-11.494000	21.588981	0.000929	20.796467
88.023564	-3.003200	3.834400	-11.514000	21.593311	0.000930	20.778040
89.021622	-2.977800	3.835400	-11.419000	21.599120	0.000930	20.799500
90.023129	-3.007700	3.835100	-11.534000	21.616275	0.000932	20.771623
91.022327	-2.994300	3.834500	-11.479000	21.613563	0.000932	20.774599
92.020564	-3.008900	3.833900	-11.534000	21.633170	0.000932	20.778573
93.023571	-3.015000	3.834100	-11.559000	21.671678	0.000932	20.768746
94.025052	-3.017300	3.832300	-11.563000	21.630531	0.000932	20.774984
95.023885	-2.992400	3.835200	-11.475000	21.659123	0.000932	20.771829
96.028283	-3.005900	3.831900	-11.518000	21.644811	0.000934	20.777420
97.024213	-3.007000	3.833100	-11.524000	21.654786	0.000933	20.767488
98.023464	-3.011000	3.832300	-11.538000	21.683581	0.000934	20.750786
99.024360	-3.018000	3.830800	-11.559000	21.714345	0.000931	20.784419
100.026526	-3.011800	3.831200	-11.537000	21.698686	0.000934	20.789610
101.022032	-2.981600	3.833100	-11.428000	21.722546	0.000932	20.764177
102.026093	-2.989800	3.830900	-11.453000	21.724221	0.000932	20.767750
103.024314	-3.018500	3.831100	-11.562000	21.728583	0.000933	20.762632
104.026432	-2.995200	3.830800	-11.473000	21.732267	0.000936	20.757785
105.028109	-3.015900	3.829100	-11.547000	21.740174	0.000935	20.759534
106.029968	-3.014900	3.831000	-11.549000	21.738745	0.000937	20.773751
107.024074	-3.012400	3.830300	-11.536000	21.735421	0.000935	20.750509
108.027644	-3.017100	3.828800	-11.550000	21.742282	0.000936	20.769705
109.031860	-3.008100	3.829400	-11.519000	21.732129	0.000935	20.764759
110.031564	-2.998900	3.828900	-11.482000	21.770471	0.000935	20.747657
111.025886	-3.001300	3.828700	-11.491000	21.766927	0.000937	20.755015
112.032979	-3.003600	3.828300	-11.497000	21.762680	0.000937	20.762618
113.029927	-3.005000	3.828200	-11.503000	21.776271	0.000937	20.759626
114.030516	-3.003800	3.828500	-11.499000	21.788981	0.000937	20.769502
115.028855	-2.997300	3.828400	-11.474000	21.815486	0.000937	20.760468
116.027148	-2.973100	3.828900	-11.382000	21.807033	0.000939	20.752481
117.029990	-2.996600	3.828000	-11.470000	21.813404	0.000937	20.754591
118.031002	-2.984800	3.827700	-11.424000	21.783134	0.000937	20.753218
119.027869	-3.007900	3.827700	-11.511000	21.806381	0.000939	20.770796
120.030149	-2.999100	3.826200	-11.474000	21.800974	0.000938	20.747365
121.030282	-3.008800	3.826700	-11.512000	21.824081	0.000939	20.743940
122.031158	-2.989100	3.826600	-11.437000	21.823371	0.000938	20.768834
123.033102	-3.002800	3.826600	-11.488000	21.814501	0.000939	20.749524
124.030307	-3.000800	3.825100	-11.477000	21.826329	0.000940	20.753302
125.030924	-3.007300	3.826300	-11.505000	21.807183	0.000938	20.748838
126.030665	-3.019700	3.825700	-11.551000	21.840842	0.000941	20.774468
127.030745	-3.004400	3.825300	-11.492000	21.861865	0.000941	20.749516
128.030810	-3.001900	3.825300	-11.482000	21.860584	0.000941	20.754872
129.032295	-3.006500	3.824500	-11.496000	21.838817	0.000943	20.762957
130.030877	-3.007600	3.825000	-11.503000	21.857162	0.000942	20.768043
131.031835	-3.022000	3.823700	-11.555000	21.863998	0.000942	20.764928
132.033778	-3.008900	3.824300	-11.506000	21.862888	0.000944	20.754333
133.030530	-2.978600	3.824700	-11.390000	21.863541	0.000943	20.751668
134.032248	-2.999200	3.823700	-11.467000	21.892634	0.000942	20.737639
135.037665	-2.994500	3.823300	-11.448000	21.926732	0.000944	20.764185
136.034564	-2.994400	3.823700	-11.449000	21.895974	0.000943	20.752363
137.030513	-2.991700	3.822500	-11.435000	21.929967	0.000946	20.759362
138.035800	-3.000700	3.823200	-11.470000	21.944577	0.000947	20.755021
139.032232	-3.002200	3.822200	-11.475000	21.961507	0.000946	20.743518
140.030113	-3.010800	3.822300	-11.507000	21.945787	0.000947	20.742955
141.030274	-2.998100	3.821700	-11.456000	21.961173	0.000946	20.728484
142.030171	-3.007500	3.821000	-11.490000	21.972615	0.000944	20.738989
143.033211	-2.990300	3.822800	-11.430000	21.965411	0.000946	20.722769
144.030864	-3.020700	3.820100	-11.539000	21.992999	0.000948	20.756551
145.032770	-3.002500	3.820900	-11.471000	21.995694	0.000947	20.759248
146.030591	-2.991700	3.819600	-11.426000	22.010468	0.000948	20.756494
147.030826	-2.992200	3.820600	-11.430000	22.025281	0.000947	20.752831
148.032744	-3.009400	3.820200	-11.496000	22.044104	0.000948	20.734216
149.031656	-2.994900	3.818800	-11.436000	22.057359	0.000950	20.721405
150.033142	-2.996600	3.819100	-11.443000	22.074181	0.000950	20.741092
151.031223	-3.000700	3.819100	-11.458000	22.087467	0.000951	20.744910
152.031360	-3.023900	3.818800	-11.547000	22.090709	0.000951	20.741517
153.033450	-2.979100	3.819900	-11.379000	22.100149	0.000950	20.741959
154.033597	-3.003400	3.817500	-11.464000	22.085867	0.000951	20.752791
155.038305	-2.988500	3.817400	-11.407000	22.123331	0.000950	20.759005
156.031917	-3.023200	3.818000	-11.540000	22.121633	0.000952	20.734070
157.034634	-2.992600	3.816900	-11.422000	22.129211	0.000952	20.739286
158.037418	-2.969500	3.818800	-11.339000	22.128215	0.000953	20.756781
159.034153	-2.992300	3.817300	-11.421000	22.101366	0.000955	20.751238
160.033795	-2.977900	3.819000	-11.371000	22.128958	0.000955	20.739981
161.033224	-2.982000	3.817600	-11.382000	22.111280	0.000954	20.758793
162.033604	-2.999800	3.816600	-11.446000	22.133196	0.000955	20.748966
163.036009	-2.998700	3.815400	-11.439000	22.117812	0.000955	20.740676
164.035261	-2.984200	3.816500	-11.388000	22.124394	0.000956	20.721660
165.035169	-2.998900	3.815100	-11.440000	22.109557	0.000955	20.745214
166.036375	-2.992700	3.815800	-11.418000	22.139011	0.000957	20.750046
167.034221	-2.979700	3.816500	-11.370000	22.142407	0.000956	20.734480
168.039725	-2.985400	3.815700	-11.391000	22.156647	0.000958	20.730244
169.038732	-2.998400	3.814900	-11.438000	22.140815	0.000957	20.748059
170.038119	-3.000000	3.814000	-11.441000	22.147543	0.000958	20.727293
171.036999	-2.991900	3.814700	-11.410000	22.161425	0.000958	20.736924
172.040524	-2.982000	3.814000	-11.372000	22.164470	0.000957	20.743767
173.035737	-2.997500	3.814800	-11.434000	22.170219	0.000959	20.740988
174.044619	-2.991500	3.816000	-11.414000	22.202602	0.000958	20.766772
175.040608	-3.017400	3.812800	-11.503000	22.225309	0.000962	20.722650
176.038579	-2.982000	3.813600	-11.372000	22.242708	0.000960	20.736752
177.035242	-3.010000	3.812800	-11.476000	22.230542	0.000960	20.750651
178.039402	-3.008100	3.812200	-11.466000	22.248390	0.000961	20.759038
179.036475	-3.021600	3.811800	-11.517000	22.260818	0.000963	20.755834
180.037028	-2.991500	3.813700	-11.407000	22.256711	0.000963	20.743187
181.040897	-2.994600	3.813000	-11.416000	22.281033	0.000962	20.730082
182.037310	-3.016400	3.810500	-11.493000	22.290953	0.000962	20.728635
183.036560	-3.006500	3.810200	-11.454000	22.304040	0.000962	20.727988
184.039598	-2.997700	3.812600	-11.427000	22.292030	0.000962	20.741094
185.042684	-2.987400	3.811100	-11.383000	22.313266	0.000966	20.739123
186.035650	-2.993500	3.812700	-11.412000	22.302791	0.000965	20.739067
187.039902	-2.999200	3.810400	-11.427000	22.302023	0.000964	20.740194
188.042047	-3.018300	3.809700	-11.498000	22.324973	0.000966	20.729509
189.040752	-2.999600	3.809100	-11.424000	22.334304	0.000966	20.721783
190.043056	-3.006100	3.809400	-11.451000	22.344550	0.000965	20.732991
191.042054	-2.986400	3.809700	-11.375000	22.358829	0.000965	20.733065
192.041862	-2.999900	3.810000	-11.428000	22.363915	0.000967	20.711604
193.038927	-2.996500	3.809200	-11.412000	22.360021	0.000966	20.736155
194.036777	-2.987300	3.808500	-11.377000	22.368144	0.000969	20.736703
195.043790	-3.003500	3.809100	-11.438000	22.374177	0.000968	20.711449
196.041790	-3.017200	3.807200	-11.487000	22.381035	0.000969	20.721635
197.044541	-3.024200	3.806400	-11.511000	22.397133	0.000970	20.719264
198.041113	-2.987600	3.807800	-11.376000	22.387924	0.000968	20.708145
199.050256	-3.004300	3.807700	-11.439000	22.376136	0.000971	20.703452
200.043523	-2.997700	3.807300	-11.410000	22.374323	0.000970	20.697843
201.038886	-3.003800	3.806700	-11.433000	22.392838	0.000970	20.728240
202.041337	-2.987600	3.807100	-11.373000	22.416815	0.000971	20.720955
203.041863	-2.995100	3.807100	-11.402000	22.415875	0.000973	20.729972
204.043544	-2.994000	3.806500	-11.397000	22.430227	0.000975	20.715894
205.040904	-3.006900	3.806500	-11.445000	22.444659	0.000972	20.722761
206.043040	-3.001200	3.804400	-11.416000	22.441468	0.000971	20.704391
207.040026	-2.990900	3.805800	-11.382000	22.447517	0.000974	20.689585
208.040454	-3.017700	3.806100	-11.485000	22.477059	0.000972	20.706843
209.042091	-2.999000	3.804500	-11.408000	22.466512	0.000975	20.732793
210.041173	-3.005100	3.804300	-11.431000	22.485157	0.000976	20.706418
211.041628	-2.991600	3.804400	-11.379000	22.470691	0.000975	20.697620
212.043965	-2.993900	3.804300	-11.388000	22.479532	0.000978	20.701733
213.052551	-2.992300	3.803700	-11.380000	22.489604	0.000976	20.719883
214.045549	-2.993700	3.804500	-11.389000	22.513848	0.000978	20.689158
215.042658	-3.012800	3.803800	-11.459000	22.516844	0.000980	20.694055
216.048033	-3.006100	3.802500	-11.431000	22.510191	0.000979	20.695928
217.045825	-2.999000	3.803400	-11.405000	22.512158	0.000980	20.691259
218.042170	-2.987900	3.803900	-11.365000	22.501661	0.000979	20.711568
219.044275	-2.995800	3.801500	-11.386000	22.513039	0.000979	20.722964
220.044772	-3.011100	3.800500	-11.442000	22.513709	0.000981	20.696606
221.040953	-3.010800	3.801900	-11.446000	22.495245	0.000982	20.722686
222.048534	-3.014800	3.801400	-11.460000	22.540001	0.000982	20.709188
223.043781	-2.990100	3.802500	-11.368000	22.543094	0.000982	20.712286
224.049406	-2.992600	3.801600	-11.376000	22.574463	0.000981	20.706719
225.049237	-2.992800	3.801100	-11.374000	22.588013	0.000982	20.714126
226.051678	-2.969600	3.801700	-11.288000	22.571117	0.000983	20.694358
227.047237	-2.988700	3.801100	-11.359000	22.554260	0.000983	20.703554
228.047739	-2.989600	3.801700	-11.364000	22.587326	0.000984	20.716758
229.050909	-2.995400	3.801200	-11.384000	22.601455	0.000984	20.709097
230.045772	-3.003500	3.800200	-11.412000	22.624970	0.000983	20.671007
231.045480	-2.985400	3.800000	-11.344000	22.648517	0.000987	20.689852
232.045972	-3.000400	3.798600	-11.396000	22.636911	0.000987	20.705255
233.049608	-3.020200	3.798800	-11.472000	22.614808	0.000987	20.703031
234.052425	-3.003200	3.799500	-11.410000	22.624635	0.000987	20.700071
235.048917	-3.002400	3.797700	-11.400000	22.637335	0.000988	20.689083
236.048371	-2.982900	3.798500	-11.330000	22.649251	0.000988	20.704339
237.047459	-2.986300	3.798400	-11.341000	22.633450	0.000988	20.709375
238.050640	-2.990200	3.798400	-11.357000	22.654083	0.000989	20.678830
239.052726	-3.006800	3.797300	-11.417000	22.626455	0.000988	20.700946
240.053026	-2.988300	3.797500	-11.347000	22.656727	0.000989	20.692860
241.047880	-2.993700	3.797000	-11.366000	22.655633	0.000991	20.688919
242.050412	-3.008100	3.796200	-11.417000	22.639734	0.000990	20.692435
243.054234	-3.015400	3.796500	-11.447000	22.630315	0.000991	20.680629
244.053010	-3.024900	3.795300	-11.480000	22.642999	0.000992	20.683376
245.058266	-3.010700	3.795500	-11.426000	22.623296	0.000991	20.672649
246.051824	-3.009300	3.795700	-11.422000	22.637375	0.000992	20.677742
247.052701	-2.983500	3.795800	-11.322000	22.639048	0.000994	20.707870
248.052718	-2.976200	3.795500	-11.294000	22.629637	0.000994	20.685639
249.053485	-2.999000	3.794800	-11.380000	22.650238	0.000994	20.703904
250.052330	-2.994500	3.794400	-11.362000	22.712878	0.000994	20.683195
251.052490	-3.013800	3.794700	-11.434000	22.706202	0.000997	20.685517
252.053256	-2.983200	3.794400	-11.317000	22.718688	0.000995	20.692809
253.056572	-2.990800	3.795600	-11.351000	22.740438	0.000995	20.687094
254.057216	-2.983100	3.793900	-11.316000	22.730637	0.000996	20.685811
255.055856	-2.968700	3.794600	-11.265000	22.758278	0.000999	20.693586
256.056395	-3.025900	3.790700	-11.469000	22.762987	0.000996	20.685026
257.054957	-2.991900	3.793600	-11.348000	22.738716	0.000996	20.685843
258.056968	-2.983300	3.794400	-11.319000	22.756237	0.000999	20.701500
259.062974	-3.006700	3.791900	-11.401000	22.745522	0.000998	20.696930
260.059129	-3.000300	3.792200	-11.377000	22.726188	0.001000	20.679932
261.054675	-2.990800	3.791300	-11.336000	22.748215	0.001000	20.695360
262.057300	-2.995200	3.791300	-11.355000	22.752409	0.000999	20.682490
263.054391	-2.993200	3.791300	-11.346000	22.757788	0.001001	20.689775
264.057507	-2.997800	3.791900	-11.366000	22.764341	0.001001	20.700134
265.054595	-2.991400	3.791300	-11.340000	22.756490	0.001001	20.688950
266.058348	-3.018800	3.792200	-11.446000	22.744713	0.001002	20.694223
267.055682	-3.013700	3.790200	-11.421000	22.758816	0.001002	20.690331
268.057447	-2.989600	3.791700	-11.334000	22.756368	0.001002	20.698785
269.060232	-2.990600	3.789400	-11.331000	22.748483	0.001005	20.714122
270.055295	-3.007900	3.788900	-11.396000	22.754889	0.001003	20.685449
271.059005	-3.012000	3.789100	-11.411000	22.755159	0.001003	20.682874
272.059993	-3.001100	3.788900	-11.369000	22.774436	0.001005	20.686063
