LabVIEW Measurement	
Writer_Version	2
Reader_Version	2
Separator	Tab
Decimal_Separator	.
Multi_Headings	No
X_Columns	One
Time_Pref	Absolute
Operator	admin
Description	Clolumns are: time, Current, Voltage, Power, Battery Temp, and Chamber Temp
Date	2024/08/16
Time	13:06:06.104549407958984375
***End_of_Header***	
	
Channels	6						
Samples	1	1	1	1	1	1	
Date	2024/08/23	2024/08/23	2024/08/23	2024/08/23	2024/08/23	2024/08/23	
Time	06:11:15.2853374481201171875	06:11:15.2923994064331054688	06:11:15.2993869781494140625	06:11:15.267078399658203125	06:11:15.267078399658203125	06:11:15.267078399658203125	
X_Dimension	Time	Time	Time	Time	Time	Time	
X0	0.0000000000000000E+0	0.0000000000000000E+0	0.0000000000000000E+0	0.0000000000000000E+0	0.0000000000000000E+0	0.0000000000000000E+0	
Delta_X	1.000000	1.000000	1.000000	1.000000	1.000000	1.000000	
***End_of_Header***							
X_Value	Untitled	Untitled 1	Untitled 2	Untitled 3	Untitled 4	Untitled 5	Comment
0.000000	-0.002200	4.108200	-0.009018	21.104409	0.000971	20.861208
1.003847	-3.028200	3.953200	-11.967000	21.098093	0.000970	20.857260
2.001562	-2.991300	3.948500	-11.811000	21.092226	0.000969	20.859452
3.001967	-3.006700	3.940700	-11.848000	21.107272	0.000968	20.840838
4.001895	-3.000900	3.938500	-11.818000	21.110467	0.000969	20.848775
4.999565	-3.016600	3.935500	-11.871000	21.128042	0.000966	20.853078
6.003205	-3.019700	3.931400	-11.871000	21.115176	0.000967	20.851115
7.007843	-3.003500	3.928200	-11.797000	21.092391	0.000963	20.844445
8.004663	-3.006700	3.925300	-11.801000	21.104642	0.000964	20.855277
9.004239	-3.007300	3.925800	-11.805000	21.121928	0.000963	20.844593
10.003508	-3.008700	3.922800	-11.800000	21.124299	0.000963	20.844119
11.002938	-3.027000	3.920100	-11.865000	21.112564	0.000962	20.836649
12.002387	-3.026900	3.919300	-11.862000	21.090039	0.000962	20.841145
13.005354	-2.995700	3.918500	-11.737000	21.129580	0.000961	20.836126
14.004678	-2.994000	3.917700	-11.728000	21.134745	0.000959	20.841292
15.003870	-2.995000	3.915700	-11.726000	21.120254	0.000960	20.848608
16.004112	-2.990900	3.915300	-11.710000	21.125314	0.000957	20.836600
17.006822	-2.996200	3.914000	-11.726000	21.124366	0.000957	20.845134
18.011933	-2.991200	3.911900	-11.700000	21.142828	0.000957	20.826144
19.014133	-2.989900	3.912300	-11.697000	21.137558	0.000958	20.823244
20.008688	-3.012100	3.909900	-11.776000	21.140556	0.000957	20.833355
21.011291	-3.001800	3.909200	-11.734000	21.145795	0.000955	20.827690
22.011940	-2.982500	3.909600	-11.659000	21.160113	0.000956	20.833952
23.018292	-2.996000	3.908500	-11.707000	21.153846	0.000954	20.817252
24.011086	-2.999900	3.907300	-11.720000	21.134437	0.000955	20.811587
25.009745	-2.991400	3.906100	-11.683000	21.175004	0.000956	20.832252
26.010932	-2.995400	3.905300	-11.698000	21.167666	0.000953	20.828231
27.010805	-3.004200	3.904400	-11.728000	21.163917	0.000950	20.826377
28.018024	-2.999100	3.903200	-11.705000	21.175521	0.000953	20.834666
29.009853	-3.021200	3.902700	-11.789000	21.180637	0.000951	20.844998
30.008818	-2.978700	3.903100	-11.625000	21.169057	0.000951	20.811605
31.016545	-3.001400	3.902300	-11.712000	21.191661	0.000953	20.829949
32.010202	-2.980200	3.902100	-11.628000	21.198322	0.000951	20.827129
33.011362	-3.005800	3.900100	-11.722000	21.209329	0.000952	20.808268
34.012376	-3.009700	3.900900	-11.740000	21.212222	0.000951	20.841033
35.010284	-3.019000	3.901200	-11.776000	21.218390	0.000949	20.828238
36.009066	-2.999700	3.901100	-11.701000	21.211003	0.000950	20.817529
37.011986	-3.039000	3.897300	-11.842000	21.215964	0.000949	20.827234
38.011909	-2.989700	3.898800	-11.655000	21.236518	0.000947	20.804173
39.018767	-2.992100	3.898300	-11.663000	21.231606	0.000947	20.810164
40.011251	-2.990800	3.897200	-11.655000	21.232178	0.000949	20.828754
41.018175	-2.989500	3.897700	-11.651000	21.233403	0.000946	20.813385
42.015460	-2.995100	3.896100	-11.668000	21.212351	0.000947	20.796593
43.012826	-2.978400	3.895800	-11.602000	21.248268	0.000947	20.811661
44.015917	-2.996500	3.894700	-11.668000	21.252510	0.000946	20.804998
45.011035	-3.007600	3.895200	-11.714000	21.261663	0.000947	20.803249
46.014930	-3.001300	3.894100	-11.685000	21.246028	0.000945	20.809420
47.012386	-2.986100	3.895500	-11.632000	21.260746	0.000945	20.801858
48.010211	-2.982800	3.894400	-11.615000	21.236739	0.000946	20.819567
49.011462	-3.025600	3.893700	-11.780000	21.275955	0.000944	20.813280
50.016212	-2.996400	3.893100	-11.665000	21.279069	0.000944	20.810232
51.017375	-2.980400	3.893600	-11.604000	21.287502	0.000944	20.807762
52.013460	-3.003400	3.891700	-11.687000	21.288531	0.000943	20.804050
53.017441	-3.017000	3.891800	-11.740000	21.285354	0.000944	20.817467
54.024347	-2.987200	3.893700	-11.630000	21.314240	0.000944	20.796106
55.018282	-3.015900	3.892000	-11.736000	21.316283	0.000941	20.801469
56.018184	-3.018000	3.890600	-11.740000	21.322149	0.000942	20.808760
57.014762	-2.996400	3.890800	-11.658000	21.322241	0.000944	20.796050
58.015159	-2.989200	3.891900	-11.632000	21.339451	0.000942	20.804258
59.018177	-2.992300	3.890700	-11.641000	21.323730	0.000942	20.831204
60.019843	-3.004700	3.890500	-11.688000	21.344590	0.000942	20.802762
61.022424	-3.008700	3.889200	-11.701000	21.336305	0.000941	20.805853
62.017650	-2.986900	3.891100	-11.622000	21.360567	0.000942	20.794565
63.020666	-2.994200	3.889400	-11.644000	21.363491	0.000943	20.822146
64.017881	-2.998900	3.888900	-11.661000	21.353403	0.000941	20.813949
65.016688	-3.020600	3.887600	-11.742000	21.366328	0.000940	20.790845
66.023711	-3.002400	3.886800	-11.668000	21.368322	0.000939	20.820815
67.016944	-3.021100	3.887400	-11.743000	21.387223	0.000940	20.816018
68.021295	-3.010300	3.886700	-11.700000	21.383179	0.000939	20.798696
69.018254	-2.995600	3.887700	-11.644000	21.390909	0.000938	20.776084
70.016336	-2.997600	3.887300	-11.652000	21.395045	0.000939	20.798714
71.019329	-2.999700	3.886600	-11.658000	21.401704	0.000939	20.803954
72.018331	-3.003800	3.886100	-11.672000	21.425498	0.000940	20.779397
73.020479	-2.986300	3.887500	-11.608000	21.439111	0.000937	20.799182
74.019711	-3.000300	3.885200	-11.656000	21.426341	0.000938	20.797310
75.021099	-3.014300	3.885200	-11.710000	21.410523	0.000937	20.797605
76.023865	-3.005600	3.885400	-11.677000	21.406584	0.000938	20.800302
77.024710	-2.996300	3.885600	-11.641000	21.433042	0.000937	20.797851
78.016858	-2.992300	3.886200	-11.627000	21.432255	0.000938	20.783787
79.032124	-2.998900	3.884600	-11.649000	21.447518	0.000937	20.800955
80.016735	-2.980000	3.884100	-11.573000	21.465796	0.000936	20.783682
81.016724	-3.006600	3.883300	-11.675000	21.467926	0.000937	20.789132
82.021890	-2.995200	3.883800	-11.632000	21.486875	0.000935	20.791022
83.021606	-2.995000	3.884300	-11.632000	21.488100	0.000935	20.794145
84.016590	-2.978300	3.883200	-11.564000	21.482087	0.000935	20.791447
85.023845	-2.996400	3.882300	-11.631000	21.486463	0.000937	20.795352
86.022165	-3.020700	3.881200	-11.723000	21.500027	0.000935	20.790906
87.015762	-3.006500	3.882600	-11.672000	21.498587	0.000938	20.795155
88.022483	-3.018800	3.881400	-11.715000	21.488832	0.000937	20.781128
89.019998	-2.995100	3.881700	-11.624000	21.512975	0.000935	20.773516
90.021842	-3.001500	3.881500	-11.650000	21.517492	0.000938	20.785149
91.023161	-3.000600	3.881500	-11.646000	21.518693	0.000936	20.768806
92.020137	-3.006200	3.881500	-11.667000	21.523456	0.000937	20.774046
93.027019	-2.982200	3.882200	-11.576000	21.508489	0.000937	20.767131
94.021073	-3.000500	3.879900	-11.641000	21.536748	0.000935	20.764114
95.026726	-2.998900	3.882300	-11.642000	21.554705	0.000936	20.796781
96.021210	-3.005000	3.882700	-11.666000	21.544231	0.000935	20.756903
97.022890	-3.003200	3.881700	-11.656000	21.572034	0.000936	20.779034
98.023581	-2.999000	3.880700	-11.638000	21.565825	0.000935	20.772347
99.025843	-2.985700	3.881500	-11.588000	21.552533	0.000937	20.760942
100.025714	-2.994300	3.879800	-11.615000	21.574526	0.000936	20.781528
101.024927	-3.011100	3.878400	-11.676000	21.573301	0.000935	20.776509
102.037374	-2.999800	3.879100	-11.635000	21.575123	0.000937	20.783073
103.024081	-2.998200	3.880800	-11.635000	21.572827	0.000937	20.772716
104.032983	-2.995100	3.879800	-11.619000	21.604869	0.000938	20.771589
105.024700	-2.996000	3.880200	-11.624000	21.609583	0.000938	20.782470
106.033514	-2.994700	3.877400	-11.609000	21.621804	0.000936	20.761982
107.028462	-2.999100	3.878200	-11.630000	21.620400	0.000936	20.753465
108.033566	-3.002700	3.877100	-11.641000	21.613188	0.000935	20.760947
109.028388	-2.987700	3.879500	-11.589000	21.606930	0.000938	20.771754
110.034190	-3.000200	3.876500	-11.628000	21.611299	0.000937	20.774230
111.030226	-3.005400	3.876800	-11.650000	21.621379	0.000936	20.737849
112.027469	-3.014300	3.876500	-11.684000	21.612481	0.000936	20.764033
113.030578	-3.008800	3.876400	-11.662000	21.612745	0.000938	20.760504
114.028698	-3.004900	3.876900	-11.649000	21.610555	0.000937	20.774908
115.034761	-2.975400	3.878600	-11.540000	21.624819	0.000938	20.747455
116.029320	-3.000700	3.876800	-11.633000	21.634018	0.000937	20.754765
117.032169	-2.989300	3.877200	-11.588000	21.634867	0.000938	20.778374
118.031477	-2.993900	3.877400	-11.606000	21.643076	0.000937	20.736328
119.031372	-2.995500	3.875400	-11.608000	21.641925	0.000938	20.752720
120.031917	-2.972000	3.876500	-11.520000	21.642122	0.000938	20.746753
121.031160	-3.002500	3.876600	-11.638000	21.640005	0.000939	20.756489
122.035738	-3.007500	3.875700	-11.655000	21.658631	0.000938	20.758533
123.032573	-2.970800	3.877200	-11.517000	21.674396	0.000939	20.765776
124.033504	-2.999600	3.875600	-11.624000	21.672894	0.000940	20.762850
125.033556	-2.998400	3.874600	-11.616000	21.658779	0.000940	20.772906
126.039461	-3.004300	3.874500	-11.640000	21.688929	0.000940	20.748551
127.037151	-2.988000	3.875900	-11.580000	21.669276	0.000940	20.766342
128.031842	-2.997700	3.873800	-11.611000	21.713713	0.000940	20.758182
129.036180	-3.001200	3.874700	-11.628000	21.714735	0.000942	20.765369
130.034315	-3.007500	3.873200	-11.648000	21.734086	0.000942	20.760553
131.043861	-3.023900	3.872600	-11.709000	21.719171	0.000939	20.756532
132.038471	-3.011200	3.874900	-11.667000	21.730173	0.000939	20.748102
133.039011	-2.986500	3.874300	-11.570000	21.729741	0.000940	20.759524
134.040165	-2.999500	3.873500	-11.617000	21.755479	0.000939	20.729806
135.042077	-3.028700	3.872800	-11.728000	21.781837	0.000940	20.755713
136.041046	-3.003300	3.873200	-11.632000	21.739648	0.000941	20.756163
137.043195	-2.995500	3.872400	-11.598000	21.753676	0.000943	20.773047
138.040239	-3.000500	3.871800	-11.616000	21.754107	0.000941	20.736967
139.037467	-3.009100	3.873500	-11.655000	21.757989	0.000939	20.745595
140.037715	-3.000400	3.870800	-11.613000	21.772731	0.000939	20.764617
141.040881	-3.015300	3.872000	-11.674000	21.770842	0.000940	20.740441
142.045895	-2.997300	3.872900	-11.606000	21.777272	0.000941	20.746402
143.041932	-3.003700	3.871000	-11.625000	21.786999	0.000940	20.756138
144.046377	-3.002100	3.870800	-11.620000	21.779942	0.000940	20.740539
145.043972	-3.012000	3.871400	-11.660000	21.772436	0.000941	20.762899
146.043519	-3.001200	3.870400	-11.614000	21.796899	0.000940	20.749924
147.041439	-3.018500	3.870700	-11.682000	21.799870	0.000942	20.759063
148.044672	-2.982500	3.871900	-11.547000	21.817504	0.000942	20.734037
149.041340	-2.989700	3.870700	-11.572000	21.825224	0.000941	20.735601
150.040641	-3.019500	3.869500	-11.683000	21.841429	0.000942	20.760356
151.042496	-3.006600	3.869100	-11.632000	21.850111	0.000942	20.737276
152.041480	-3.004700	3.868300	-11.622000	21.856571	0.000939	20.766977
153.047825	-3.024900	3.867900	-11.697000	21.860139	0.000943	20.737831
154.042941	-3.017200	3.869800	-11.674000	21.860139	0.000942	20.751582
155.044780	-3.010700	3.868700	-11.646000	21.859444	0.000943	20.724806
156.045742	-3.000500	3.868400	-11.606000	21.873631	0.000942	20.730946
157.042251	-3.004200	3.868900	-11.622000	21.867399	0.000943	20.732769
158.051637	-2.991400	3.869600	-11.574000	21.886845	0.000943	20.713352
159.057979	-3.001500	3.867500	-11.607000	21.886827	0.000943	20.743207
160.047479	-3.002900	3.868100	-11.615000	21.896203	0.000941	20.733151
161.048033	-2.974100	3.869800	-11.509000	21.899772	0.000944	20.731033
162.048155	-3.019000	3.867200	-11.675000	21.900866	0.000943	20.718852
163.051816	-3.006600	3.866800	-11.625000	21.920965	0.000942	20.713365
164.051536	-3.006200	3.868000	-11.627000	21.908852	0.000943	20.723052
165.051329	-2.988900	3.867400	-11.558000	21.897687	0.000945	20.726101
166.045901	-2.992600	3.866600	-11.570000	21.921052	0.000945	20.731945
167.050434	-2.990000	3.866900	-11.561000	21.941722	0.000944	20.737937
168.048068	-3.014800	3.865700	-11.653000	21.928305	0.000944	20.721661
169.052117	-3.020000	3.865000	-11.672000	21.913774	0.000945	20.731299
170.046675	-2.994600	3.866800	-11.579000	21.930409	0.000947	20.713810
171.051646	-2.993400	3.866100	-11.571000	21.905981	0.000945	20.705004
172.051080	-3.019200	3.863200	-11.663000	21.929198	0.000948	20.722081
173.052412	-2.981900	3.866100	-11.527000	21.932139	0.000948	20.721705
174.056694	-3.014000	3.865700	-11.650000	21.938100	0.000948	20.717241
175.050400	-3.023300	3.862500	-11.675000	21.954851	0.000947	20.703662
176.054243	-3.011700	3.864100	-11.637000	21.964934	0.000949	20.719920
177.050654	-3.010600	3.864000	-11.632000	21.966952	0.000947	20.721466
178.055349	-2.987400	3.865900	-11.548000	21.987449	0.000947	20.708793
179.053807	-3.019700	3.862500	-11.663000	21.991466	0.000950	20.727514
180.058354	-3.003000	3.864900	-11.606000	21.998669	0.000949	20.712913
181.052321	-3.001500	3.865000	-11.600000	21.996793	0.000948	20.727630
182.055726	-2.996000	3.863600	-11.574000	22.012707	0.000947	20.707050
183.056174	-2.985400	3.863800	-11.534000	22.033930	0.000950	20.716442
184.053197	-2.988400	3.863100	-11.544000	22.035123	0.000950	20.713369
185.059325	-2.993600	3.862900	-11.563000	22.042553	0.000950	20.716541
186.053722	-2.988400	3.865300	-11.550000	22.059629	0.000951	20.710401
187.058955	-2.989100	3.862600	-11.543000	22.071445	0.000955	20.699470
188.058851	-2.987200	3.862900	-11.539000	22.057784	0.000951	20.700018
189.058166	-2.988600	3.863400	-11.546000	22.054075	0.000953	20.719066
190.056883	-2.984300	3.863000	-11.528000	22.081300	0.000952	20.704594
191.063933	-2.993600	3.862400	-11.562000	22.090064	0.000952	20.706730
192.066270	-2.964200	3.863300	-11.450000	22.097249	0.000952	20.692585
193.055504	-3.018800	3.860500	-11.653000	22.096603	0.000953	20.708535
194.060391	-2.990800	3.860700	-11.545000	22.090692	0.000954	20.694081
195.055857	-3.001600	3.862200	-11.592000	22.099150	0.000953	20.713930
196.058885	-3.021700	3.859900	-11.662000	22.103283	0.000954	20.705265
197.061415	-3.006200	3.860900	-11.605000	22.090667	0.000954	20.701170
198.060578	-3.004900	3.860000	-11.598000	22.104753	0.000954	20.700098
199.057682	-3.017700	3.860100	-11.648000	22.104489	0.000954	20.696989
200.061950	-3.012600	3.859200	-11.625000	22.108530	0.000956	20.696768
201.063861	-3.018100	3.860100	-11.649000	22.090158	0.000955	20.707298
202.057828	-3.011500	3.859300	-11.620000	22.089887	0.000959	20.695173
203.063974	-3.009300	3.859900	-11.615000	22.133730	0.000956	20.709195
204.063240	-3.020800	3.859500	-11.658000	22.128797	0.000956	20.692876
205.064374	-3.006400	3.859500	-11.602000	22.124387	0.000958	20.709325
206.062389	-3.003000	3.859800	-11.589000	22.140619	0.000959	20.683848
207.068527	-2.967100	3.861300	-11.456000	22.131793	0.000958	20.706782
208.062495	-3.013100	3.859400	-11.627000	22.134407	0.000960	20.697070
209.062712	-3.009100	3.859200	-11.612000	22.158560	0.000959	20.689957
210.066199	-3.001500	3.857600	-11.578000	22.140921	0.000959	20.696005
211.060655	-3.010300	3.858800	-11.616000	22.155245	0.000960	20.714615
212.065604	-2.985500	3.859800	-11.523000	22.172645	0.000960	20.705482
213.063325	-3.003500	3.858600	-11.589000	22.161752	0.000960	20.690308
214.068787	-2.992500	3.857700	-11.543000	22.178020	0.000961	20.689525
215.064698	-3.011300	3.857400	-11.615000	22.160977	0.000962	20.696645
216.063122	-3.015700	3.856600	-11.627000	22.166365	0.000962	20.693504
217.067185	-3.016500	3.856900	-11.634000	22.155171	0.000963	20.684192
218.069736	-3.012600	3.858300	-11.622000	22.147415	0.000963	20.703456
219.063959	-2.990200	3.857400	-11.533000	22.188919	0.000963	20.682419
220.066556	-2.999800	3.857500	-11.571000	22.194780	0.000966	20.681649
221.063920	-2.997100	3.856700	-11.557000	22.198046	0.000966	20.709103
222.061566	-2.988100	3.856800	-11.524000	22.230182	0.000964	20.698604
223.064157	-2.992200	3.856900	-11.539000	22.214947	0.000965	20.699472
224.063398	-2.993400	3.856200	-11.541000	22.201638	0.000966	20.684723
225.065040	-3.000400	3.855200	-11.564000	22.191483	0.000966	20.702532
226.064600	-2.992200	3.855300	-11.535000	22.212727	0.000967	20.699145
227.065587	-2.986700	3.854700	-11.512000	22.192504	0.000968	20.690277
228.068795	-2.984400	3.854600	-11.503000	22.226731	0.000969	20.697993
229.063303	-2.992600	3.855400	-11.536000	22.237647	0.000968	20.689482
230.066354	-2.995800	3.855600	-11.550000	22.242937	0.000970	20.689089
231.062542	-2.999100	3.855500	-11.562000	22.276700	0.000969	20.725268
232.066685	-2.998200	3.853100	-11.552000	22.249585	0.000970	20.695745
233.065545	-3.015600	3.852500	-11.617000	22.258551	0.000969	20.708992
234.070927	-3.005900	3.852400	-11.578000	22.271417	0.000969	20.695320
235.070434	-2.997500	3.853900	-11.551000	22.272764	0.000970	20.679598
236.068349	-2.969800	3.855500	-11.449000	22.280488	0.000970	20.682117
237.068960	-3.014400	3.852000	-11.610000	22.284911	0.000972	20.684174
238.066174	-3.019000	3.851700	-11.627000	22.304417	0.000971	20.718408
239.078153	-3.000500	3.854900	-11.566000	22.336574	0.000973	20.710304
240.066854	-2.990300	3.854500	-11.525000	22.323789	0.000972	20.684224
241.079954	-3.001500	3.852100	-11.560000	22.318531	0.000974	20.695555
242.069515	-2.984100	3.852900	-11.497000	22.303772	0.000974	20.704484
243.069992	-2.988900	3.852700	-11.514000	22.299043	0.000973	20.720139
244.069085	-3.004700	3.852200	-11.572000	22.325911	0.000974	20.694410
245.075242	-2.993700	3.851800	-11.530000	22.291270	0.000972	20.714252
246.072724	-3.003900	3.851300	-11.567000	22.314922	0.000976	20.699053
247.068606	-2.985600	3.851700	-11.498000	22.316995	0.000974	20.701129
248.072384	-2.990700	3.851300	-11.517000	22.336679	0.000974	20.715151
249.072402	-2.994600	3.851600	-11.533000	22.324515	0.000976	20.687796
250.075489	-3.008500	3.851000	-11.585000	22.358012	0.000976	20.685302
251.073503	-2.981700	3.851200	-11.481000	22.348001	0.000976	20.694719
252.073360	-2.992300	3.851000	-11.523000	22.366868	0.000977	20.705077
253.071390	-2.983100	3.850300	-11.484000	22.367212	0.000979	20.710638
254.070554	-2.985600	3.850300	-11.494000	22.375107	0.000976	20.699577
255.076758	-3.002300	3.849700	-11.557000	22.361179	0.000979	20.713606
256.076915	-2.989400	3.848300	-11.503000	22.361856	0.000978	20.716654
257.074275	-2.983900	3.849900	-11.486000	22.361382	0.000980	20.690100
258.074535	-2.959600	3.850900	-11.396000	22.358713	0.000979	20.705446
259.071197	-3.021300	3.848900	-11.628000	22.357594	0.000979	20.698635
260.073293	-3.001900	3.849400	-11.555000	22.373890	0.000979	20.715429
261.076766	-3.003700	3.848600	-11.559000	22.394896	0.000983	20.717023
262.070827	-3.002500	3.849700	-11.556000	22.398463	0.000980	20.685980
263.071577	-3.000500	3.847800	-11.544000	22.395597	0.000980	20.712984
264.073261	-2.998500	3.848700	-11.539000	22.404538	0.000982	20.693012
265.070985	-2.984400	3.848400	-11.484000	22.423312	0.000983	20.717979
266.075497	-3.017900	3.847300	-11.610000	22.432732	0.000983	20.709394
267.075098	-2.991700	3.848200	-11.512000	22.452169	0.000984	20.713686
268.073598	-2.995800	3.846700	-11.522000	22.445541	0.000984	20.688080
269.076304	-2.993900	3.847900	-11.519000	22.431908	0.000985	20.728010
270.075415	-3.005000	3.846900	-11.560000	22.432960	0.000985	20.711993
271.075514	-2.985600	3.848000	-11.488000	22.422470	0.000985	20.707651
272.075808	-3.000500	3.845100	-11.536000	22.433864	0.000987	20.713373
