LabVIEW Measurement	
Writer_Version	2
Reader_Version	2
Separator	Tab
Decimal_Separator	.
Multi_Headings	No
X_Columns	One
Time_Pref	Absolute
Operator	admin
Description	Clolumns are: time, Current, Voltage, Power, Battery Temp, and Chamber Temp
Date	2024/07/01
Time	13:16:16.4306159019470214844
***End_of_Header***	
	
Channels	6						
Samples	1	1	1	1	1	1	
Date	2024/07/10	2024/07/10	2024/07/10	2024/07/10	2024/07/10	2024/07/10	
Time	17:20:24.3531045913696289062	17:20:24.3592686653137207031	17:20:24.3642816543579101562	17:20:24.3381090164184570312	17:20:24.3381090164184570312	17:20:24.3381090164184570312	
X_Dimension	Time	Time	Time	Time	Time	Time	
X0	0.0000000000000000E+0	0.0000000000000000E+0	0.0000000000000000E+0	0.0000000000000000E+0	0.0000000000000000E+0	0.0000000000000000E+0	
Delta_X	1.000000	1.000000	1.000000	1.000000	1.000000	1.000000	
***End_of_Header***							
X_Value	Untitled	Untitled 1	Untitled 2	Untitled 3	Untitled 4	Untitled 5	Comment
0.000000	0.031326	2.991900	0.093751	20.732181	-0.000103	20.673382
1.001161	3.016800	3.115100	9.398200	20.738172	-0.000104	20.660879
2.000814	2.992000	3.127700	9.358800	20.724446	-0.000103	20.675130
3.000567	3.012100	3.139900	9.458200	20.718879	-0.000105	20.683315
4.000099	3.011800	3.150200	9.488500	20.735901	-0.000102	20.684215
5.000506	3.019700	3.159000	9.539800	20.736274	-0.000102	20.698813
6.001969	2.996700	3.167200	9.491800	20.724868	-0.000102	20.682191
7.003626	3.000600	3.173700	9.523500	20.732056	-0.000102	20.691750
8.006564	2.991000	3.183100	9.521400	20.737820	-0.000102	20.681391
9.005024	2.994600	3.189900	9.553100	20.720399	-0.000100	20.688154
10.008226	3.003200	3.195700	9.597800	20.730530	-0.000102	20.687379
11.010582	2.985400	3.202600	9.561300	20.723992	-0.000102	20.683685
12.008739	2.989000	3.208600	9.591400	20.731128	-9.961787E-5	20.681812
13.007762	2.990200	3.214800	9.613600	20.716378	-9.965087E-5	20.695988
14.007484	2.979700	3.217100	9.586500	20.731128	-0.000102	20.678018
15.008728	2.998400	3.224900	9.670200	20.722118	-9.941985E-5	20.687502
16.007901	2.988100	3.231600	9.656500	20.726161	-9.984888E-5	20.664990
17.011464	2.968700	3.233200	9.599000	20.721018	-9.813276E-5	20.687825
18.008088	2.992800	3.238300	9.691600	20.702498	-9.852879E-5	20.681633
19.007882	3.006200	3.242200	9.747400	20.726408	-9.948586E-5	20.669979
20.014369	2.996800	3.247500	9.732500	20.732622	-9.803375E-5	20.671926
21.009679	2.997500	3.252900	9.751200	20.730675	-9.895782E-5	20.683731
22.013981	2.991800	3.257900	9.747300	20.728330	-9.819876E-5	20.695136
23.017039	3.011100	3.262900	9.825600	20.726682	-9.925484E-5	20.677366
24.013472	2.990000	3.266900	9.768500	20.719891	-9.724169E-5	20.673420
25.012717	2.990600	3.270800	9.782300	20.713977	-9.631762E-5	20.687422
26.013483	2.986900	3.275100	9.783000	20.722886	-9.776973E-5	20.697754
27.013772	3.001200	3.279600	9.843400	20.716271	-9.658164E-5	20.695881
28.016880	2.993200	3.283300	9.828200	20.724384	-9.760472E-5	20.690717
29.015207	2.986100	3.287600	9.817500	20.724434	-9.796774E-5	20.699776
30.014791	2.990400	3.292300	9.845900	20.725032	-9.631762E-5	20.689468
31.015763	2.987400	3.295200	9.844900	20.747567	-9.404045E-5	20.675965
32.015975	3.008600	3.300300	9.929800	20.747168	-9.681266E-5	20.699750
33.023669	3.023600	3.304000	9.990400	20.735364	-9.628462E-5	20.694584
34.017386	3.015600	3.308900	9.979200	20.734838	-9.654864E-5	20.683151
35.017532	3.008300	3.312300	9.965100	20.758473	-9.562457E-5	20.688768
36.019131	3.026200	3.314800	10.031000	20.751361	-9.529454E-5	20.692088
37.020722	3.006200	3.317900	9.975200	20.762665	-9.773673E-5	20.710506
38.020227	3.010000	3.321900	9.999500	20.748364	-9.446948E-5	20.683400
39.024538	3.003600	3.325600	9.989400	20.760220	-9.628462E-5	20.697628
40.020234	3.011500	3.328300	10.024000	20.751361	-9.592159E-5	20.686871
41.020766	3.012200	3.332500	10.039000	20.759470	-9.377643E-5	20.689765
42.024603	3.017700	3.335400	10.066000	20.767731	-9.311638E-5	20.696604
43.019131	2.995500	3.337800	9.999600	20.755952	-9.470050E-5	20.686247
44.025553	2.997300	3.342500	10.019000	20.764462	-9.489852E-5	20.694283
45.021751	3.016700	3.345100	10.092000	20.793236	-9.651564E-5	20.698401
46.023098	2.991700	3.347700	10.016000	20.773994	-9.400745E-5	20.700970
47.022202	3.013800	3.350800	10.099000	20.807260	-9.262135E-5	20.660264
48.022673	2.999700	3.354000	10.062000	20.791115	-9.215931E-5	20.690590
49.025851	3.009800	3.357400	10.106000	20.801595	-9.371043E-5	20.684948
50.026365	2.998800	3.360700	10.079000	20.807934	-9.374343E-5	20.703617
51.027965	3.005800	3.364000	10.112000	20.796306	-9.173028E-5	20.711903
52.029686	2.997800	3.367000	10.093000	20.834937	-9.255534E-5	20.712129
53.030359	3.011900	3.369500	10.149000	20.824479	-9.295137E-5	20.707360
54.033934	2.995800	3.372000	10.102000	20.822386	-9.093822E-5	20.717121
55.029827	2.996300	3.374400	10.111000	20.831992	-9.064120E-5	20.704916
56.029803	3.008100	3.377400	10.160000	20.833765	-9.219231E-5	20.710008
57.030891	3.005800	3.380500	10.162000	20.854226	-9.311638E-5	20.694908
58.030435	3.015700	3.382400	10.201000	20.846193	-8.928810E-5	20.712954
59.033772	2.988300	3.386700	10.121000	20.852755	-9.324839E-5	20.701972
60.030782	2.991100	3.388000	10.135000	20.856597	-8.882606E-5	20.711979
61.032650	2.995700	3.390800	10.159000	20.859942	-8.991515E-5	20.726705
62.032824	2.997100	3.393600	10.172000	20.870074	-9.130125E-5	20.717871
63.034563	3.002600	3.396200	10.198000	20.882776	-9.146626E-5	20.752860
64.031236	2.988300	3.398000	10.155000	20.886146	-9.100423E-5	20.714029
65.031599	2.994900	3.401300	10.187000	20.898622	-9.044318E-5	20.705168
66.032025	3.014300	3.405000	10.264000	20.878685	-9.041018E-5	20.717473
67.032444	3.006900	3.407500	10.246000	20.888989	-8.978314E-5	20.710234
68.031199	2.997100	3.408300	10.215000	20.906333	-9.140026E-5	20.710035
69.034487	2.989000	3.409700	10.192000	20.919060	-8.743996E-5	20.709013
70.031642	3.003300	3.415100	10.257000	20.918087	-8.813301E-5	20.709936
71.033013	2.994300	3.414700	10.226000	20.919958	-8.638388E-5	20.710386
72.038435	3.001100	3.418900	10.261000	20.930864	-8.727495E-5	20.723190
73.033152	2.996400	3.419800	10.248000	20.938824	-8.757197E-5	20.709339
74.038939	3.000300	3.423200	10.271000	20.950452	-8.757197E-5	20.721918
75.033974	2.996000	3.424400	10.261000	20.947808	-8.826502E-5	20.726386
76.033127	2.978900	3.427000	10.210000	20.960333	-8.945311E-5	20.729430
77.035507	3.019500	3.428300	10.353000	20.973359	-8.810001E-5	20.703101
78.034514	2.973400	3.430100	10.200000	20.963378	-8.826502E-5	20.723940
79.037350	3.008900	3.433200	10.330000	20.991250	-8.948611E-5	20.715780
80.037485	3.003900	3.436400	10.323000	20.975954	-8.621887E-5	20.714707
81.034916	2.994100	3.438600	10.296000	20.982167	-8.648289E-5	20.735147
82.034375	3.000400	3.438600	10.318000	20.975382	-8.958512E-5	20.727885
83.035247	2.996800	3.443200	10.319000	20.984665	-8.374369E-5	20.708245
84.035472	3.001600	3.444500	10.340000	21.000060	-8.496478E-5	20.716532
85.037591	2.989800	3.444600	10.299000	21.013558	-8.674691E-5	20.726239
86.036113	3.002900	3.448800	10.357000	21.009492	-8.562483E-5	20.729284
87.035277	2.990200	3.450500	10.319000	21.017526	-8.605386E-5	20.735424
88.038375	3.002800	3.453500	10.370000	21.042078	-8.654890E-5	20.721574
89.035883	3.002500	3.455700	10.377000	21.037213	-8.763798E-5	20.734252
90.039199	2.997600	3.455100	10.358000	21.049837	-8.298463E-5	20.725541
91.036374	3.005500	3.458000	10.394000	21.067201	-8.562483E-5	20.711614
92.037447	2.998400	3.459800	10.374000	21.081474	-8.367768E-5	20.732056
93.038201	2.998700	3.461500	10.380000	21.086814	-8.697793E-5	20.726965
94.039625	2.984400	3.464200	10.339000	21.069423	-8.489877E-5	20.737072
95.044982	3.014800	3.466300	10.451000	21.070271	-8.430473E-5	20.735549
96.047774	2.990700	3.466500	10.368000	21.072292	-8.364468E-5	20.754167
97.042182	3.015000	3.469500	10.461000	21.092676	-8.542681E-5	20.732829
98.043714	3.009100	3.470000	10.442000	21.101160	-8.618587E-5	20.724245
99.044389	2.996600	3.472500	10.406000	21.099462	-8.417272E-5	20.728238
100.043647	3.002800	3.474900	10.435000	21.101334	-8.255560E-5	20.755241
101.048498	3.008800	3.476000	10.459000	21.100611	-8.384270E-5	20.737922
102.044165	2.994100	3.477100	10.412000	21.132569	-8.344667E-5	20.727214
103.045983	2.996200	3.479400	10.425000	21.132719	-8.578984E-5	20.741116
104.050090	2.995500	3.481300	10.429000	21.141827	-8.285262E-5	20.743588
105.047711	3.014200	3.483100	10.499000	21.144570	-8.239059E-5	20.731632
106.053258	2.999000	3.483800	10.448000	21.152604	-8.324865E-5	20.733031
107.048199	3.010600	3.485400	10.494000	21.156870	-8.305064E-5	20.760059
108.048035	3.010400	3.486800	10.498000	21.167747	-8.222558E-5	20.741541
109.047661	3.007100	3.488500	10.491000	21.175233	-8.394170E-5	20.753771
110.046971	3.013700	3.491500	10.524000	21.187632	-8.163153E-5	20.738199
111.049594	3.009200	3.491600	10.508000	21.205245	-8.196156E-5	20.737326
112.052728	2.994300	3.493900	10.462000	21.202227	-8.189555E-5	20.773663
113.049358	2.988900	3.493800	10.443000	21.213029	-8.149952E-5	20.734207
114.049416	2.988100	3.495900	10.446000	21.198262	-8.377669E-5	20.745039
115.053557	3.008700	3.496900	10.521000	21.202554	-8.206056E-5	20.761188
116.047975	3.002000	3.499300	10.506000	21.226229	-7.968439E-5	20.754999
117.051110	3.014100	3.499200	10.547000	21.247409	-8.199456E-5	20.755324
118.049580	3.002200	3.500300	10.509000	21.263599	-7.885933E-5	20.771521
119.048815	2.988700	3.502300	10.468000	21.255391	-8.004741E-5	20.758568
120.050426	2.998300	3.505200	10.510000	21.245066	-7.968439E-5	20.752506
121.049767	3.017100	3.505000	10.575000	21.258537	-8.070746E-5	20.759345
122.052301	2.998200	3.506800	10.515000	21.269064	-8.008042E-5	20.767031
123.050791	2.996300	3.508500	10.513000	21.282062	-7.965138E-5	20.745894
124.051274	2.981900	3.509000	10.464000	21.273906	-8.060846E-5	20.770452
125.054520	3.010000	3.510300	10.567000	21.298702	-7.836429E-5	20.773922
126.052297	3.020800	3.512000	10.610000	21.297729	-7.859531E-5	20.748766
127.054821	3.015400	3.513400	10.595000	21.309878	-7.905734E-5	20.758076
128.051367	3.010200	3.514800	10.581000	21.333675	-8.077347E-5	20.771453
129.052437	2.986300	3.514700	10.497000	21.341109	-7.912335E-5	20.786477
130.060982	2.996400	3.515600	10.535000	21.349091	-8.067446E-5	20.779290
131.054409	3.007000	3.517600	10.577000	21.343803	-7.701119E-5	20.778740
132.059531	3.021600	3.518700	10.633000	21.358770	-8.067446E-5	20.753411
133.055953	3.002200	3.520000	10.568000	21.355653	-7.882632E-5	20.772578
134.056706	2.987700	3.522000	10.523000	21.377853	-7.856230E-5	20.769185
135.060329	2.994400	3.521600	10.546000	21.386733	-7.876032E-5	20.767164
136.062296	2.994800	3.523200	10.553000	21.410929	-7.915635E-5	20.749172
137.060189	3.000000	3.523000	10.570000	21.414096	-7.958538E-5	20.752341
138.060337	3.005900	3.524100	10.594000	21.423125	-7.803426E-5	20.765643
139.059118	3.008300	3.526600	10.610000	21.419559	-7.790225E-5	20.784834
140.060984	2.983700	3.527700	10.526000	21.413897	-7.691218E-5	20.774902
141.060653	2.988100	3.528700	10.544000	21.437043	-7.658216E-5	20.791423
142.063122	2.991400	3.528100	10.554000	21.471163	-8.123550E-5	20.768663
143.063292	3.013100	3.531100	10.641000	21.454927	-7.684618E-5	20.773755
144.063460	3.016400	3.531000	10.652000	21.477949	-7.711020E-5	20.777824
145.064053	3.008300	3.531600	10.625000	21.492514	-7.767124E-5	20.769164
146.062917	2.998800	3.534100	10.599000	21.497626	-7.645015E-5	20.786608
147.066678	2.997000	3.535500	10.596000	21.495133	-7.674717E-5	20.762302
148.064283	2.985700	3.535600	10.557000	21.512118	-7.612012E-5	20.787831
149.064666	2.997900	3.536900	10.604000	21.522119	-7.493203E-5	20.782192
150.065084	2.999400	3.537000	10.610000	21.538405	-7.727521E-5	20.793273
151.066032	3.005300	3.538000	10.634000	21.523989	-7.572409E-5	20.776477
152.068667	2.995400	3.539200	10.602000	21.550500	-7.720920E-5	20.784986
153.067435	2.998500	3.539800	10.615000	21.549153	-7.486603E-5	20.787907
154.065160	2.998800	3.540300	10.618000	21.565389	-7.595511E-5	20.798463
155.066479	3.000300	3.541200	10.625000	21.563218	-7.466802E-5	20.783963
156.065130	2.996600	3.542000	10.615000	21.573419	-7.595511E-5	20.794645
157.066411	2.992200	3.543500	10.603000	21.598309	-7.450300E-5	20.791102
158.068281	2.981400	3.544700	10.569000	21.614393	-7.298489E-5	20.790129
159.069720	2.998700	3.544200	10.629000	21.624494	-7.394196E-5	20.787908
160.070028	3.002400	3.545300	10.645000	21.622100	-7.354593E-5	20.796418
161.072653	3.009400	3.547000	10.675000	21.639405	-7.641714E-5	20.788606
162.069969	3.016100	3.548000	10.702000	21.665316	-7.579010E-5	20.785139
163.072527	2.983700	3.548000	10.587000	21.658533	-7.400797E-5	20.802532
164.071000	3.000200	3.548300	10.646000	21.659282	-7.536107E-5	20.818928
165.071988	2.991300	3.550200	10.620000	21.689356	-7.298489E-5	20.790231
166.070555	2.987000	3.550400	10.606000	21.689682	-7.146678E-5	20.799565
167.071474	2.993300	3.551300	10.631000	21.680279	-7.387596E-5	20.777353
168.070935	2.999300	3.553500	10.659000	21.710453	-7.324891E-5	20.795697
169.076559	3.012700	3.553300	10.705000	21.693720	-7.377695E-5	20.796969
170.072390	3.006700	3.553600	10.685000	21.720577	-7.331492E-5	20.804407
171.071814	3.005300	3.553900	10.681000	21.743917	-7.206082E-5	20.791256
172.072700	3.015500	3.556300	10.724000	21.733594	-7.321591E-5	20.807951
173.074759	2.991600	3.555600	10.637000	21.754016	-7.255586E-5	20.795199
174.074979	2.998500	3.556100	10.664000	21.768876	-7.196181E-5	20.805330
175.073822	3.007300	3.557900	10.700000	21.771472	-7.374395E-5	20.792755
176.073751	2.997600	3.558000	10.666000	21.802216	-7.146678E-5	20.797921
177.074681	2.994300	3.560300	10.661000	21.806579	-7.149978E-5	20.800866
178.076584	3.002900	3.559100	10.688000	21.798974	-7.067472E-5	20.811272
179.078048	3.007200	3.560300	10.707000	21.793989	-7.097174E-5	20.820506
180.075389	2.997500	3.559300	10.669000	21.827897	-7.146678E-5	20.814142
181.076119	3.007000	3.561200	10.709000	21.851736	-6.918961E-5	20.806234
182.076711	3.010100	3.562300	10.724000	21.851635	-7.146678E-5	20.819884
183.075058	3.011600	3.563500	10.732000	21.853555	-7.206082E-5	20.815642
184.079574	3.001500	3.563200	10.696000	21.856273	-7.176380E-5	20.824051
185.076800	3.002800	3.563500	10.701000	21.845527	-7.291889E-5	20.803339
186.077664	2.993300	3.565200	10.672000	21.882379	-7.126876E-5	20.809878
187.077965	2.990400	3.565600	10.663000	21.898061	-7.077373E-5	20.827946
188.080035	3.005900	3.565600	10.718000	21.911199	-7.173080E-5	20.799846
189.082333	2.999000	3.565600	10.694000	21.895217	-7.034469E-5	20.819410
190.078742	2.998600	3.567500	10.698000	21.917954	-7.123576E-5	20.825574
191.078597	2.991700	3.566500	10.670000	21.916358	-6.961864E-5	20.834881
192.079192	2.998900	3.568300	10.702000	21.932764	-6.975065E-5	20.818587
193.078473	3.018000	3.567400	10.767000	21.973824	-6.932162E-5	20.826971
194.081662	3.010000	3.570000	10.746000	21.973175	-7.001467E-5	20.833434
195.081406	3.013300	3.570000	10.758000	21.971704	-6.991566E-5	20.811573
196.081192	2.992400	3.568300	10.678000	22.001843	-7.014668E-5	20.825148
197.082339	2.988100	3.571000	10.672000	22.025102	-6.889259E-5	20.810499
198.081707	2.995000	3.570800	10.695000	22.023483	-6.991566E-5	20.822154
199.084116	3.001900	3.570500	10.719000	22.061472	-6.951963E-5	20.828417
200.084602	3.025300	3.572300	10.808000	22.056337	-6.826554E-5	20.827069
201.083915	3.006600	3.571200	10.738000	22.050802	-6.783651E-5	20.828166
202.084023	3.004900	3.572000	10.734000	22.073637	-6.965164E-5	20.846758
203.082582	3.007700	3.573000	10.747000	22.094699	-6.978365E-5	20.825171
204.087408	2.986800	3.574100	10.675000	22.107512	-6.763849E-5	20.816187
205.085564	3.038200	3.575400	10.863000	22.123665	-6.786951E-5	20.820979
206.083850	2.993500	3.574100	10.699000	22.138944	-6.552634E-5	20.830585
207.083087	2.984800	3.575500	10.672000	22.122342	-6.895859E-5	20.831034
208.088331	3.013700	3.574700	10.773000	22.128923	-6.833155E-5	20.838570
209.084335	3.011900	3.575700	10.770000	22.122017	-6.687944E-5	20.848726
210.087194	3.002100	3.576500	10.737000	22.142781	-6.592237E-5	20.809297
211.084365	3.000000	3.576200	10.729000	22.160379	-6.440426E-5	20.826441
212.085318	3.011400	3.577400	10.774000	22.144225	-6.664842E-5	20.829709
213.085080	2.997600	3.577100	10.723000	22.172442	-6.767150E-5	20.841363
214.084163	3.022800	3.577000	10.813000	22.194227	-6.555934E-5	20.855113
215.086133	3.000400	3.579200	10.739000	22.202052	-6.727547E-5	20.836397
216.086374	2.993000	3.579300	10.714000	22.239537	-6.628539E-5	20.848797
217.084895	2.999100	3.577400	10.729000	22.219549	-6.668142E-5	20.843009
218.086854	2.997700	3.579400	10.731000	22.242430	-6.381021E-5	20.844582
219.090867	2.999200	3.579200	10.735000	22.243252	-6.562535E-5	20.847302
220.092085	2.991200	3.579400	10.707000	22.243928	-6.450326E-5	20.839918
221.087202	3.008300	3.580800	10.773000	22.274828	-6.661542E-5	20.851891
222.085963	3.007400	3.580000	10.767000	22.276676	-6.615338E-5	20.841413
223.089151	3.012100	3.580900	10.786000	22.289487	-6.651641E-5	20.851395
224.086671	3.008500	3.581000	10.774000	22.287766	-6.668142E-5	20.851095
225.091647	2.984900	3.580800	10.689000	22.267904	-6.344718E-5	20.844958
226.087198	2.999300	3.583000	10.747000	22.292253	-6.519631E-5	20.866492
227.088802	2.985200	3.581900	10.693000	22.305562	-6.394222E-5	20.847103
228.091117	2.996600	3.582600	10.737000	22.341823	-6.361220E-5	20.870609
229.087912	2.993500	3.582000	10.723000	22.351393	-6.344718E-5	20.812865
230.087976	3.018000	3.583600	10.816000	22.329987	-6.414024E-5	20.859706
231.088608	3.023600	3.584100	10.837000	22.365398	-6.282014E-5	20.854863
232.090026	3.007200	3.583400	10.776000	22.377983	-6.503130E-5	20.841387
233.090476	3.006200	3.583300	10.773000	22.412700	-6.206108E-5	20.832056
234.088224	2.997800	3.583600	10.743000	22.400537	-6.285314E-5	20.846903
235.091908	2.995300	3.584900	10.738000	22.396799	-6.255612E-5	20.859280
236.091270	2.984900	3.585400	10.703000	22.397771	-6.087299E-5	20.852667
237.092811	3.014500	3.585900	10.810000	22.404152	-6.110401E-5	20.855738
238.091265	3.004800	3.585400	10.774000	22.436845	-6.348019E-5	20.844382
239.091345	2.995100	3.586900	10.743000	22.449107	-6.199508E-5	20.835325
240.095857	2.989600	3.587000	10.724000	22.474600	-6.272113E-5	20.843310
241.092151	2.993700	3.586600	10.738000	22.472431	-6.209408E-5	20.841612
242.092049	3.005300	3.587700	10.782000	22.500938	-6.173106E-5	20.858307
243.091479	2.990800	3.586300	10.726000	22.493014	-6.377721E-5	20.839941
244.093958	2.992400	3.588700	10.740000	22.475048	-5.859583E-5	20.846604
245.092110	3.007000	3.588700	10.792000	22.476842	-6.262212E-5	20.839392
246.093926	2.996800	3.589100	10.756000	22.496779	-5.872783E-5	20.857461
247.092642	2.990900	3.589600	10.737000	22.505347	-6.064198E-5	20.827637
248.093368	3.000700	3.589400	10.772000	22.515765	-6.064198E-5	20.838069
249.093480	2.989500	3.589400	10.731000	22.535674	-5.889285E-5	20.829560
250.098535	3.004700	3.590500	10.789000	22.523066	-5.925587E-5	20.842063
251.099058	3.012600	3.590800	10.818000	22.531090	-6.126902E-5	20.843460
252.094341	2.995600	3.590900	10.758000	22.571830	-5.819980E-5	20.827839
253.097479	2.999200	3.590500	10.769000	22.578383	-5.793578E-5	20.827764
254.099422	3.003900	3.592800	10.793000	22.593433	-5.905786E-5	20.856587
255.098027	3.005000	3.592300	10.795000	22.576489	-5.628565E-5	20.817332
256.099788	3.008300	3.590600	10.802000	22.610301	-5.720972E-5	20.827964
257.099052	3.006600	3.592300	10.801000	22.598168	-5.628565E-5	20.818656
258.099369	2.995900	3.593100	10.765000	22.585836	-5.885984E-5	20.831435
259.101834	2.984300	3.594000	10.726000	22.630237	-5.810079E-5	20.820905
260.102560	3.018600	3.592800	10.846000	22.631632	-5.783677E-5	20.829889
261.104150	3.007600	3.593300	10.808000	22.614913	-5.727573E-5	20.842066
262.104187	3.016400	3.594100	10.842000	22.619796	-5.658268E-5	20.813292
263.104985	3.003200	3.595500	10.799000	22.638285	-5.684670E-5	20.828018
264.104356	2.996900	3.594500	10.773000	22.689610	-5.780377E-5	20.830115
265.108152	3.004100	3.594600	10.799000	22.682933	-5.658268E-5	20.844763
266.110030	3.022800	3.597100	10.874000	22.696287	-5.612064E-5	20.850552
