LabVIEW Measurement	
Writer_Version	2
Reader_Version	2
Separator	Tab
Decimal_Separator	.
Multi_Headings	No
X_Columns	One
Time_Pref	Absolute
Operator	admin
Description	Clolumns are: time, Current, Voltage, Power, Battery Temp, and Chamber Temp
Date	2024/08/16
Time	13:07:17.8513970375061035156
***End_of_Header***	
	
Channels	6						
Samples	1	1	1	1	1	1	
Date	2024/09/10	2024/09/10	2024/09/10	2024/09/10	2024/09/10	2024/09/10	
Time	03:41:22.5503544807434082031	03:41:22.5598759651184082031	03:41:22.5698790550231933594	03:41:22.530727386474609375	03:41:22.530727386474609375	03:41:22.530727386474609375	
X_Dimension	Time	Time	Time	Time	Time	Time	
X0	0.0000000000000000E+0	0.0000000000000000E+0	0.0000000000000000E+0	0.0000000000000000E+0	0.0000000000000000E+0	0.0000000000000000E+0	
Delta_X	1.000000	1.000000	1.000000	1.000000	1.000000	1.000000	
***End_of_Header***							
X_Value	Untitled	Untitled 1	Untitled 2	Untitled 3	Untitled 4	Untitled 5	Comment
0.000000	0.033792	4.091400	0.138220	20.823547	0.000448	20.800788
1.005002	-2.995500	3.921700	-11.746000	20.836422	0.000448	20.790430
1.998350	-3.020800	3.914500	-11.823000	20.842453	0.000446	20.793142
2.998738	-2.979900	3.912200	-11.657000	20.823718	0.000448	20.805227
4.003780	-2.994300	3.907500	-11.700000	20.820605	0.000444	20.807803
5.002962	-2.996000	3.907500	-11.706000	20.842914	0.000446	20.792655
5.998324	-3.020900	3.903200	-11.789000	20.850804	0.000445	20.791062
7.005470	-3.002700	3.900400	-11.711000	20.860506	0.000443	20.791755
7.999613	-3.001900	3.898800	-11.702000	20.860117	0.000443	20.799901
9.004885	-3.001900	3.897300	-11.699000	20.858208	0.000441	20.802733
10.003407	-3.019000	3.894200	-11.755000	20.885343	0.000444	20.807585
11.004648	-2.987100	3.893500	-11.630000	20.888199	0.000440	20.806174
12.003466	-2.980400	3.892200	-11.598000	20.884309	0.000441	20.816034
13.005874	-2.994000	3.891700	-11.651000	20.897341	0.000439	20.826696
14.005484	-2.982200	3.890700	-11.603000	20.885014	0.000439	20.823377
15.002278	-3.004600	3.889400	-11.685000	20.924353	0.000436	20.813408
16.014019	-2.965400	3.890000	-11.535000	20.907772	0.000437	20.820532
17.006581	-3.007200	3.887200	-11.689000	20.942952	0.000436	20.807828
18.010340	-3.006800	3.886500	-11.685000	20.932851	0.000439	20.817639
19.010231	-2.994500	3.885000	-11.633000	20.931367	0.000438	20.811414
20.011763	-3.002600	3.884300	-11.662000	20.936789	0.000437	20.818733
21.009041	-2.985200	3.883400	-11.591000	20.980271	0.000436	20.816228
22.010488	-3.008500	3.884700	-11.686000	20.969804	0.000437	20.827096
23.008494	-2.990300	3.883500	-11.611000	20.958353	0.000435	20.823705
24.013364	-2.985400	3.883100	-11.592000	20.969840	0.000437	20.806270
25.013790	-2.995700	3.880400	-11.623000	20.989533	0.000436	20.789930
26.014279	-2.996500	3.880200	-11.626000	20.983637	0.000434	20.814379
27.013890	-3.001500	3.879400	-11.643000	20.986543	0.000435	20.813018
28.014489	-2.983300	3.879300	-11.573000	21.029123	0.000437	20.782112
29.014525	-3.005300	3.878000	-11.652000	21.032029	0.000435	20.804459
30.010132	-2.997500	3.877900	-11.623000	21.028771	0.000434	20.790769
31.012119	-2.993700	3.878900	-11.610000	21.029937	0.000436	20.803789
32.013474	-2.994600	3.877300	-11.609000	21.075616	0.000433	20.788786
33.010598	-2.983500	3.876900	-11.566000	21.037644	0.000432	20.797747
34.013654	-2.977200	3.877400	-11.543000	21.062647	0.000432	20.783401
35.011284	-2.984100	3.876900	-11.568000	21.078752	0.000433	20.775801
36.016526	-2.993200	3.876800	-11.603000	21.076163	0.000432	20.782695
37.018137	-3.024700	3.874300	-11.718000	21.074595	0.000430	20.807206
38.015753	-2.995600	3.874800	-11.607000	21.098163	0.000431	20.783364
39.015350	-2.989300	3.874400	-11.581000	21.123809	0.000431	20.796215
40.018154	-2.979300	3.874200	-11.542000	21.127370	0.000428	20.789819
41.013493	-2.972500	3.875400	-11.519000	21.126494	0.000430	20.773297
42.020962	-2.988900	3.873400	-11.575000	21.130773	0.000430	20.797017
43.018329	-2.998600	3.873500	-11.614000	21.150596	0.000431	20.788397
44.016382	-2.984400	3.873600	-11.559000	21.151848	0.000430	20.784434
45.017375	-3.005300	3.872100	-11.636000	21.157305	0.000428	20.784676
46.016488	-3.014600	3.871700	-11.670000	21.146877	0.000431	20.759072
47.018238	-3.011900	3.871400	-11.660000	21.174588	0.000431	20.773041
48.017586	-3.013500	3.870400	-11.662000	21.194350	0.000429	20.770524
49.018667	-3.010000	3.871300	-11.651000	21.209299	0.000431	20.799704
50.018877	-3.010800	3.871800	-11.656000	21.185708	0.000429	20.789855
51.026863	-3.009200	3.870100	-11.645000	21.222776	0.000430	20.780943
52.024546	-3.001500	3.871600	-11.619000	21.222728	0.000432	20.792275
53.022870	-2.985400	3.870500	-11.554000	21.230433	0.000431	20.780542
54.027993	-3.004100	3.870400	-11.627000	21.217636	0.000428	20.789077
55.023958	-2.980300	3.870800	-11.535000	21.252029	0.000428	20.780335
56.021453	-2.996800	3.869200	-11.594000	21.263854	0.000431	20.765138
57.019995	-2.992900	3.870200	-11.582000	21.267317	0.000430	20.771922
58.021281	-2.979300	3.869400	-11.527000	21.283310	0.000431	20.767533
59.018791	-2.987100	3.868400	-11.555000	21.299363	0.000429	20.780748
60.020649	-3.014700	3.867800	-11.660000	21.282618	0.000428	20.792919
61.023531	-3.029600	3.867300	-11.715000	21.279215	0.000427	20.789988
62.029428	-3.000400	3.868200	-11.605000	21.299072	0.000431	20.769077
63.023670	-2.978800	3.867700	-11.520000	21.323741	0.000430	20.769575
64.025695	-2.988400	3.867500	-11.557000	21.312038	0.000429	20.775411
65.025260	-2.996600	3.868000	-11.590000	21.335771	0.000431	20.780188
66.022662	-2.989900	3.868200	-11.565000	21.351472	0.000429	20.784043
67.023247	-2.985800	3.868500	-11.550000	21.348629	0.000430	20.774560
68.023846	-3.016100	3.866400	-11.661000	21.354923	0.000429	20.793185
69.024375	-3.007300	3.867300	-11.629000	21.369505	0.000430	20.768893
70.032770	-3.026100	3.866200	-11.699000	21.357559	0.000431	20.773063
71.024582	-2.999400	3.866800	-11.597000	21.388243	0.000429	20.773416
72.029377	-3.000900	3.866700	-11.603000	21.391025	0.000431	20.767191
73.032346	-3.003000	3.865500	-11.607000	21.424454	0.000431	20.753221
74.025949	-3.005700	3.865800	-11.619000	21.421634	0.000427	20.763203
75.030097	-3.011500	3.865100	-11.639000	21.437552	0.000427	20.779129
76.024699	-3.016300	3.865100	-11.657000	21.428086	0.000430	20.766814
77.028465	-3.015300	3.865400	-11.654000	21.446155	0.000431	20.763080
78.030153	-3.009800	3.865400	-11.632000	21.444210	0.000427	20.757342
79.030764	-2.999300	3.864800	-11.591000	21.456252	0.000429	20.766071
80.024737	-2.983300	3.865400	-11.531000	21.446664	0.000428	20.765013
81.027262	-2.987500	3.864700	-11.545000	21.450601	0.000429	20.762314
82.028505	-2.990500	3.864000	-11.555000	21.495255	0.000430	20.751992
83.028483	-2.994500	3.864700	-11.571000	21.451670	0.000428	20.735882
84.030130	-3.011300	3.862600	-11.631000	21.479289	0.000431	20.755457
85.032393	-2.997200	3.864700	-11.581000	21.503541	0.000430	20.773086
86.029418	-3.002400	3.863400	-11.599000	21.502326	0.000430	20.756697
87.028312	-3.009400	3.864100	-11.628000	21.522921	0.000431	20.772563
88.035610	-3.005800	3.863400	-11.611000	21.526930	0.000428	20.754763
89.033304	-2.975100	3.863200	-11.492000	21.529008	0.000428	20.736453
90.032634	-2.992800	3.863800	-11.562000	21.556430	0.000427	20.767687
91.027620	-2.997200	3.862300	-11.576000	21.559905	0.000430	20.756940
92.029383	-2.992400	3.863100	-11.559000	21.580814	0.000428	20.760793
93.027810	-3.019000	3.861300	-11.656000	21.588699	0.000430	20.762994
94.028662	-3.005900	3.862200	-11.608000	21.600460	0.000429	20.764805
95.034865	-3.014800	3.862600	-11.644000	21.589768	0.000430	20.760270
96.027778	-3.012600	3.862300	-11.634000	21.590886	0.000429	20.745267
97.025456	-3.006100	3.860400	-11.603000	21.602999	0.000431	20.764975
98.033281	-3.011700	3.861300	-11.628000	21.614298	0.000428	20.754945
99.031613	-2.984900	3.861400	-11.525000	21.629399	0.000430	20.752039
100.030444	-2.987400	3.861700	-11.535000	21.613192	0.000430	20.764744
101.037958	-2.999300	3.861400	-11.581000	21.621405	0.000431	20.745461
102.027419	-2.998000	3.860700	-11.573000	21.626434	0.000431	20.760926
103.029781	-2.995100	3.859800	-11.559000	21.646808	0.000431	20.755236
104.036893	-3.012300	3.860100	-11.626000	21.675564	0.000432	20.744659
105.034656	-3.007100	3.859300	-11.604000	21.675844	0.000430	20.751103
106.035277	-2.960600	3.861600	-11.431000	21.664667	0.000430	20.742762
107.029251	-3.001700	3.858300	-11.580000	21.678662	0.000431	20.726421
108.034026	-3.000100	3.860300	-11.580000	21.665553	0.000434	20.743175
109.034379	-3.003800	3.860200	-11.595000	21.718557	0.000431	20.752598
110.034786	-3.004000	3.859400	-11.592000	21.695038	0.000431	20.766993
111.039348	-2.975300	3.860600	-11.486000	21.685404	0.000434	20.753558
112.037663	-2.996900	3.860300	-11.569000	21.709470	0.000434	20.759625
113.038030	-2.994600	3.858800	-11.554000	21.728676	0.000435	20.766045
114.037757	-2.986300	3.859000	-11.523000	21.735358	0.000436	20.740488
115.035082	-2.987400	3.859500	-11.529000	21.756604	0.000436	20.754641
116.036311	-3.009500	3.857600	-11.607000	21.744481	0.000436	20.734445
117.042162	-3.005000	3.857100	-11.588000	21.757856	0.000434	20.746410
118.038698	-2.995300	3.858100	-11.556000	21.760868	0.000436	20.736148
119.037559	-3.003500	3.858300	-11.587000	21.757576	0.000436	20.734750
120.040365	-3.000600	3.858500	-11.577000	21.796970	0.000436	20.736245
121.038557	-2.995600	3.858000	-11.556000	21.797699	0.000434	20.762106
122.037388	-2.999800	3.857500	-11.570000	21.796084	0.000434	20.725400
123.039681	-3.008100	3.857200	-11.601000	21.793435	0.000434	20.751674
124.040978	-3.000400	3.857700	-11.573000	21.795500	0.000432	20.752318
125.044763	-3.007700	3.856800	-11.599000	21.813394	0.000436	20.738458
126.040828	-2.980000	3.857900	-11.495000	21.830448	0.000437	20.749365
127.035729	-2.985900	3.856900	-11.516000	21.861908	0.000438	20.746240
128.041637	-2.987900	3.857500	-11.525000	21.827216	0.000437	20.749923
129.041765	-3.006100	3.856600	-11.592000	21.858944	0.000434	20.730945
130.044580	-3.012300	3.855500	-11.613000	21.852543	0.000437	20.742082
131.037569	-3.009200	3.856200	-11.603000	21.884586	0.000437	20.734799
132.041604	-3.005600	3.855800	-11.588000	21.869391	0.000437	20.743298
133.041147	-2.995900	3.855900	-11.551000	21.883299	0.000436	20.753426
134.041709	-2.985400	3.855600	-11.510000	21.882484	0.000438	20.744550
135.040441	-2.999400	3.855800	-11.563000	21.904712	0.000439	20.728392
136.038402	-2.990000	3.854600	-11.523000	21.911745	0.000440	20.726896
137.042592	-3.004200	3.855600	-11.582000	21.905794	0.000441	20.742751
138.041150	-3.020700	3.854600	-11.642000	21.914964	0.000439	20.740550
139.044967	-3.005600	3.854800	-11.586000	21.917114	0.000440	20.723261
140.049038	-3.009700	3.854600	-11.600000	21.954705	0.000438	20.740028
141.049100	-2.999700	3.855100	-11.563000	21.974162	0.000440	20.727262
142.048014	-3.019800	3.853400	-11.636000	21.961410	0.000438	20.724928
143.057792	-3.028800	3.852700	-11.668000	21.953589	0.000441	20.737962
144.048600	-2.997400	3.853700	-11.550000	21.971418	0.000440	20.730205
145.046529	-2.989200	3.854500	-11.521000	21.984474	0.000441	20.729524
146.049448	-3.010000	3.853500	-11.598000	21.987766	0.000441	20.718593
147.048910	-3.015900	3.853200	-11.619000	22.000980	0.000442	20.737038
148.050042	-2.992700	3.852900	-11.530000	21.984839	0.000440	20.717561
149.045925	-3.008300	3.852800	-11.590000	21.994167	0.000441	20.712199
150.049841	-3.003800	3.851700	-11.568000	22.000349	0.000440	20.723129
151.049241	-2.987700	3.853400	-11.511000	21.997483	0.000440	20.717889
152.049339	-2.993700	3.853400	-11.535000	22.014256	0.000441	20.740845
153.054349	-3.017700	3.851200	-11.621000	22.032339	0.000442	20.718643
154.050285	-2.996100	3.853200	-11.544000	22.047689	0.000441	20.731166
155.052675	-3.004000	3.851100	-11.567000	22.047605	0.000442	20.731556
156.054159	-3.002000	3.851300	-11.560000	22.050301	0.000440	20.697743
157.052785	-3.008300	3.851800	-11.587000	22.046148	0.000444	20.707811
158.050526	-2.969700	3.852600	-11.440000	22.075429	0.000442	20.718158
159.052080	-2.999200	3.852000	-11.552000	22.087622	0.000442	20.711872
160.052910	-3.010300	3.851400	-11.592000	22.105413	0.000441	20.706923
161.050362	-2.999100	3.852100	-11.552000	22.107137	0.000443	20.725247
162.053107	-3.011600	3.850900	-11.597000	22.092468	0.000444	20.723363
163.052648	-3.026400	3.849700	-11.650000	22.119087	0.000446	20.712079
164.052132	-2.996700	3.850000	-11.537000	22.135093	0.000441	20.701550
165.051142	-2.998400	3.850300	-11.545000	22.146217	0.000444	20.730232
166.053028	-2.996800	3.850600	-11.538000	22.153831	0.000444	20.708931
167.055313	-3.017100	3.849500	-11.613000	22.148694	0.000444	20.724652
168.052904	-2.998900	3.849200	-11.543000	22.141651	0.000447	20.695788
169.056915	-2.991900	3.848900	-11.514000	22.156624	0.000446	20.696554
170.056253	-2.998000	3.848700	-11.537000	22.159842	0.000445	20.717321
171.049656	-2.993700	3.848800	-11.521000	22.173807	0.000448	20.701904
172.050284	-2.990700	3.849000	-11.511000	22.173941	0.000448	20.716264
173.052324	-2.997400	3.849700	-11.538000	22.163802	0.000446	20.705637
174.052995	-2.991300	3.849700	-11.515000	22.203911	0.000447	20.706914
175.048833	-3.008700	3.848000	-11.576000	22.190626	0.000445	20.697406
176.054029	-3.017700	3.848100	-11.611000	22.213395	0.000447	20.714040
177.050874	-3.015400	3.849400	-11.606000	22.228342	0.000449	20.701504
178.057509	-2.996700	3.848100	-11.531000	22.230965	0.000451	20.695120
179.054764	-3.021400	3.847600	-11.624000	22.230139	0.000449	20.696190
180.051237	-3.010000	3.846900	-11.578000	22.225344	0.000449	20.701346
181.051650	-2.980500	3.848300	-11.469000	22.236467	0.000449	20.686403
182.062428	-3.001700	3.847400	-11.548000	22.234985	0.000449	20.704836
183.057533	-2.999800	3.846600	-11.538000	22.235689	0.000450	20.705541
184.054995	-3.009600	3.845900	-11.574000	22.226583	0.000449	20.688361
185.058661	-2.985500	3.848200	-11.488000	22.250175	0.000453	20.705347
186.053793	-3.013000	3.847100	-11.591000	22.245294	0.000452	20.692872
187.053971	-3.015600	3.845800	-11.597000	22.279511	0.000450	20.711013
188.052300	-3.019000	3.845400	-11.608000	22.288023	0.000451	20.697724
189.055824	-2.998500	3.846500	-11.533000	22.289966	0.000451	20.701092
190.056355	-2.974900	3.846300	-11.441000	22.294653	0.000451	20.683972
191.060608	-2.999500	3.845700	-11.534000	22.332608	0.000450	20.694477
192.055608	-2.997800	3.846500	-11.530000	22.319763	0.000452	20.684933
193.057952	-3.014300	3.843900	-11.585000	22.346740	0.000451	20.685869
194.057861	-3.012400	3.844600	-11.580000	22.367951	0.000453	20.677236
195.061844	-3.017800	3.843700	-11.599000	22.363047	0.000453	20.677540
196.058928	-3.003500	3.843400	-11.543000	22.357899	0.000453	20.684240
197.055530	-3.011700	3.845200	-11.578000	22.383881	0.000454	20.681808
198.061450	-2.997300	3.844800	-11.523000	22.367879	0.000456	20.706563
199.059431	-3.009100	3.844200	-11.566000	22.389016	0.000453	20.679364
200.058196	-3.024500	3.843200	-11.623000	22.402712	0.000455	20.670319
201.060189	-2.999000	3.844200	-11.528000	22.397272	0.000455	20.677675
202.059006	-3.008700	3.844000	-11.565000	22.400332	0.000453	20.685955
203.062735	-2.987000	3.843400	-11.479000	22.436195	0.000456	20.680617
204.067804	-2.973700	3.843300	-11.428000	22.433112	0.000456	20.678951
205.061529	-2.988300	3.843900	-11.485000	22.488386	0.000458	20.694004
206.057740	-2.976300	3.843700	-11.439000	22.447146	0.000455	20.682575
207.061831	-2.983800	3.842800	-11.466000	22.446697	0.000455	20.696351
208.062398	-2.975700	3.842200	-11.432000	22.454856	0.000459	20.655679
209.058702	-2.990500	3.843400	-11.493000	22.453933	0.000459	20.671353
210.065457	-2.996300	3.842700	-11.513000	22.469897	0.000459	20.683073
211.062779	-3.029200	3.840100	-11.632000	22.477254	0.000457	20.702771
212.062669	-3.022900	3.842400	-11.614000	22.490171	0.000459	20.683463
213.062590	-3.010700	3.841000	-11.562000	22.476344	0.000460	20.688582
214.063766	-2.996100	3.842300	-11.511000	22.457175	0.000459	20.683135
215.067652	-2.984600	3.842400	-11.467000	22.479282	0.000460	20.691999
216.063838	-2.998900	3.841700	-11.520000	22.479039	0.000463	20.677056
217.061934	-3.002500	3.841300	-11.532000	22.511683	0.000460	20.673238
218.069067	-2.998900	3.840700	-11.516000	22.497759	0.000459	20.683002
219.066857	-3.023100	3.839400	-11.606000	22.527817	0.000459	20.680388
220.066244	-2.999000	3.840000	-11.515000	22.550954	0.000462	20.695975
221.069086	-3.000900	3.839600	-11.522000	22.549157	0.000461	20.688011
222.068074	-3.012600	3.840000	-11.567000	22.547349	0.000460	20.671025
223.067950	-3.005900	3.838500	-11.537000	22.570256	0.000461	20.672156
224.070164	-2.994300	3.839400	-11.496000	22.583985	0.000461	20.666940
225.069801	-3.013400	3.837500	-11.563000	22.570754	0.000461	20.676923
226.067028	-3.011800	3.839400	-11.562000	22.589096	0.000463	20.689130
227.068324	-2.994900	3.839200	-11.498000	22.599596	0.000462	20.662187
228.067614	-2.985600	3.839000	-11.461000	22.609489	0.000464	20.687271
229.068388	-2.972800	3.838800	-11.411000	22.613798	0.000464	20.665032
230.074522	-2.985300	3.838600	-11.458000	22.626228	0.000465	20.677483
231.068420	-3.012700	3.837900	-11.562000	22.634506	0.000464	20.665385
232.072248	-2.996900	3.837600	-11.499000	22.612184	0.000463	20.686651
233.073076	-2.985700	3.838300	-11.460000	22.615826	0.000465	20.683186
234.073287	-3.041900	3.836400	-11.669000	22.637626	0.000463	20.672303
235.075946	-3.013000	3.836900	-11.560000	22.607754	0.000463	20.670832
236.075737	-2.997600	3.836700	-11.500000	22.626337	0.000465	20.670954
237.070389	-2.990000	3.838000	-11.475000	22.637699	0.000468	20.687551
238.074046	-2.995000	3.835900	-11.488000	22.654086	0.000465	20.681204
239.075290	-3.004600	3.835900	-11.524000	22.649777	0.000469	20.678785
240.071618	-3.004800	3.836300	-11.527000	22.663638	0.000469	20.676547
241.088236	-3.002900	3.836500	-11.519000	22.664051	0.000467	20.670796
242.078174	-3.010900	3.834700	-11.545000	22.674866	0.000468	20.678785
243.077082	-3.035100	3.834100	-11.636000	22.695331	0.000468	20.686482
244.077713	-2.988800	3.835900	-11.463000	22.682550	0.000467	20.677472
245.071757	-2.998100	3.835500	-11.498000	22.682477	0.000471	20.689728
246.082679	-2.993800	3.835400	-11.482000	22.697698	0.000469	20.693121
247.075665	-3.015300	3.834500	-11.562000	22.697746	0.000470	20.676572
248.071992	-3.000500	3.835500	-11.508000	22.683703	0.000469	20.688112
249.073953	-3.000700	3.833800	-11.504000	22.710357	0.000472	20.658382
250.076854	-3.010400	3.834500	-11.542000	22.696654	0.000469	20.679272
251.076452	-2.993700	3.833900	-11.476000	22.737533	0.000470	20.667113
252.077679	-3.013300	3.832300	-11.547000	22.764174	0.000470	20.675782
253.080841	-3.005400	3.832800	-11.517000	22.752935	0.000472	20.683965
254.078746	-2.990800	3.833900	-11.466000	22.771311	0.000473	20.681036
255.083328	-2.994200	3.833900	-11.479000	22.796457	0.000469	20.683941
256.085191	-3.002400	3.832400	-11.506000	22.805026	0.000472	20.682567
257.079498	-3.012900	3.832100	-11.544000	22.809055	0.000474	20.673800
258.079431	-3.003300	3.832100	-11.507000	22.798824	0.000472	20.696744
259.084142	-2.994300	3.832800	-11.476000	22.797538	0.000474	20.676488
260.082279	-3.008100	3.831400	-11.525000	22.781251	0.000473	20.667758
261.086314	-2.989600	3.830800	-11.452000	22.785887	0.000472	20.665764
262.081655	-3.013700	3.830100	-11.540000	22.801252	0.000476	20.672147
263.080885	-3.001800	3.831800	-11.501000	22.807550	0.000473	20.673716
264.082638	-3.022100	3.830500	-11.575000	22.822042	0.000477	20.693925
265.079314	-2.987700	3.830200	-11.443000	22.835901	0.000475	20.704490
266.078746	-3.013500	3.828700	-11.537000	22.842285	0.000473	20.676744
267.082458	-3.017200	3.829100	-11.551000	22.841739	0.000475	20.674774
268.080121	-3.012800	3.830400	-11.538000	22.855039	0.000476	20.708965
269.080715	-3.013400	3.829200	-11.538000	22.846338	0.000478	20.676537
270.081810	-2.984200	3.829000	-11.425000	22.861095	0.000477	20.688951
271.084213	-2.979500	3.830100	-11.411000	22.860840	0.000477	20.694386
272.087314	-2.969400	3.830400	-11.373000	22.876083	0.000476	20.700174
