LabVIEW Measurement	
Writer_Version	2
Reader_Version	2
Separator	Tab
Decimal_Separator	.
Multi_Headings	No
X_Columns	One
Time_Pref	Absolute
Operator	admin
Description	Clolumns are: time, Current, Voltage, Power, Battery Temp, and Chamber Temp
Date	2024/08/16
Time	13:07:17.8513970375061035156
***End_of_Header***	
	
Channels	6						
Samples	1	1	1	1	1	1	
Date	2024/09/14	2024/09/14	2024/09/14	2024/09/14	2024/09/14	2024/09/14	
Time	19:17:54.0288133621215820313	19:17:54.0378160476684570313	19:17:54.0440225601196289063	19:17:54.0127401351928710938	19:17:54.0127401351928710938	19:17:54.0127401351928710938	
X_Dimension	Time	Time	Time	Time	Time	Time	
X0	0.0000000000000000E+0	0.0000000000000000E+0	0.0000000000000000E+0	0.0000000000000000E+0	0.0000000000000000E+0	0.0000000000000000E+0	
Delta_X	1.000000	1.000000	1.000000	1.000000	1.000000	1.000000	
***End_of_Header***							
X_Value	Untitled	Untitled 1	Untitled 2	Untitled 3	Untitled 4	Untitled 5	Comment
0.000000	0.022261	4.090200	0.091190	20.778883	0.000473	20.776512
1.001256	-2.982700	3.919800	-11.690000	20.798575	0.000478	20.767754
2.000393	-2.991500	3.912500	-11.704000	20.802813	0.000475	20.790959
3.000420	-3.021700	3.907700	-11.807000	20.793507	0.000473	20.770748
4.000339	-2.989700	3.905800	-11.676000	20.815096	0.000472	20.778586
5.001851	-2.995700	3.901500	-11.687000	20.808132	0.000472	20.768303
6.011154	-3.003700	3.899300	-11.711000	20.825024	0.000472	20.768125
7.000676	-3.002400	3.896500	-11.698000	20.828124	0.000472	20.780235
8.002275	-3.022500	3.895100	-11.772000	20.832544	0.000469	20.769956
9.000651	-2.997200	3.894000	-11.670000	20.805266	0.000471	20.765911
10.001693	-3.029400	3.890900	-11.786000	20.821742	0.000469	20.764369
11.001007	-2.982300	3.891000	-11.603000	20.839710	0.000468	20.767165
12.002348	-3.012300	3.887200	-11.709000	20.837962	0.000468	20.774900
13.003340	-2.983800	3.887100	-11.597000	20.845177	0.000468	20.758407
14.001990	-3.016800	3.885800	-11.722000	20.856053	0.000466	20.756007
15.003560	-3.006300	3.884800	-11.678000	20.866261	0.000466	20.757207
16.005620	-2.991000	3.885300	-11.620000	20.874569	0.000464	20.760300
17.003588	-2.998600	3.882100	-11.640000	20.885300	0.000466	20.760601
18.002881	-3.003800	3.882300	-11.662000	20.893410	0.000467	20.755434
19.004136	-2.984400	3.880300	-11.580000	20.925249	0.000466	20.769259
20.005183	-2.997100	3.879200	-11.626000	20.910247	0.000465	20.749039
21.004355	-3.001900	3.880200	-11.646000	20.909501	0.000465	20.751612
22.005404	-2.983700	3.880000	-11.576000	20.925773	0.000465	20.765515
23.005288	-2.987800	3.878900	-11.588000	20.956510	0.000464	20.765437
24.006571	-3.017000	3.876400	-11.694000	20.940090	0.000462	20.766084
25.010554	-2.991400	3.875300	-11.592000	20.942708	0.000463	20.762539
26.011485	-3.007900	3.876200	-11.658000	20.980309	0.000461	20.767429
27.006375	-2.975900	3.877600	-11.539000	20.962913	0.000460	20.750029
28.006993	-2.997800	3.876200	-11.619000	20.974468	0.000461	20.780078
29.006207	-2.992200	3.874600	-11.592000	20.990009	0.000462	20.743939
30.010578	-3.023100	3.874500	-11.713000	20.998769	0.000462	20.749381
31.007288	-3.022400	3.872200	-11.703000	21.003531	0.000460	20.757937
32.006749	-3.006100	3.873100	-11.641000	21.010465	0.000460	20.755863
33.007658	-2.995300	3.873100	-11.600000	20.995298	0.000457	20.748280
34.006641	-2.987800	3.872500	-11.570000	21.022869	0.000457	20.751200
35.011636	-2.995000	3.871400	-11.593000	21.037535	0.000460	20.734100
36.010263	-3.007700	3.870700	-11.641000	21.044898	0.000460	20.745258
37.010691	-2.997400	3.871300	-11.602000	21.043673	0.000459	20.748775
38.009665	-3.010800	3.869300	-11.648000	21.061613	0.000460	20.736847
39.007680	-2.970900	3.870800	-11.499000	21.082421	0.000460	20.738694
40.012384	-3.003300	3.869900	-11.621000	21.079124	0.000456	20.744405
41.012094	-2.990700	3.869500	-11.571000	21.079548	0.000460	20.756684
42.014624	-2.993400	3.869400	-11.582000	21.110657	0.000459	20.748445
43.011240	-2.995400	3.868700	-11.587000	21.101453	0.000458	20.756308
44.007749	-2.995400	3.868400	-11.586000	21.129441	0.000459	20.762493
45.008880	-3.019900	3.867400	-11.678000	21.130339	0.000459	20.740158
46.014299	-3.001400	3.868900	-11.611000	21.143435	0.000458	20.752309
47.009682	-3.011400	3.867900	-11.647000	21.134878	0.000459	20.751810
48.011112	-3.007300	3.867600	-11.630000	21.153780	0.000456	20.768822
49.011188	-2.989600	3.866900	-11.560000	21.153331	0.000459	20.753199
50.012407	-2.983400	3.866900	-11.535000	21.170944	0.000457	20.760386
51.012521	-2.980200	3.867600	-11.525000	21.193044	0.000457	20.733655
52.012838	-3.012000	3.865800	-11.643000	21.197360	0.000456	20.746033
53.013349	-2.999300	3.866700	-11.596000	21.196107	0.000457	20.754263
54.013001	-3.018800	3.865400	-11.668000	21.215466	0.000456	20.742809
55.018348	-2.994200	3.865400	-11.573000	21.239037	0.000458	20.743155
56.015604	-3.006800	3.864800	-11.619000	21.252906	0.000458	20.744227
57.014203	-2.995200	3.864600	-11.573000	21.239107	0.000457	20.732319
58.015085	-2.984700	3.865300	-11.535000	21.250388	0.000457	20.730328
59.017531	-2.995700	3.864800	-11.576000	21.255919	0.000455	20.739655
60.015912	-3.003400	3.863700	-11.603000	21.258490	0.000456	20.745547
61.016396	-3.003400	3.864000	-11.604000	21.271411	0.000456	20.748990
62.016928	-2.992800	3.863000	-11.560000	21.288272	0.000456	20.740253
63.018992	-3.013600	3.863100	-11.641000	21.291791	0.000458	20.751361
64.017503	-3.011600	3.863400	-11.634000	21.292809	0.000455	20.769449
65.019511	-2.993100	3.863300	-11.563000	21.321922	0.000455	20.758745
66.019166	-2.993500	3.864100	-11.566000	21.325590	0.000453	20.733490
67.019053	-3.009700	3.862000	-11.622000	21.337735	0.000454	20.745642
68.020440	-2.999800	3.862200	-11.585000	21.360660	0.000452	20.727800
69.021631	-3.000400	3.862700	-11.589000	21.351227	0.000454	20.758193
70.019000	-2.999400	3.862600	-11.584000	21.349785	0.000454	20.726402
71.021678	-2.996700	3.861900	-11.571000	21.370740	0.000454	20.735989
72.022887	-2.967900	3.863200	-11.464000	21.383334	0.000453	20.744322
73.020796	-3.017000	3.861500	-11.649000	21.385457	0.000455	20.725108
74.020990	-2.980400	3.860400	-11.504000	21.393665	0.000455	20.736641
75.024182	-2.995600	3.861800	-11.568000	21.394959	0.000452	20.733668
76.025407	-3.006100	3.862100	-11.608000	21.417707	0.000453	20.738409
77.021883	-3.020300	3.860800	-11.660000	21.403997	0.000454	20.754090
78.025913	-3.025400	3.860200	-11.678000	21.412173	0.000452	20.735717
79.022792	-3.022400	3.860200	-11.665000	21.429336	0.000454	20.736294
80.047722	-2.996200	3.860100	-11.565000	21.460765	0.000454	20.730282
81.039378	-3.004800	3.860600	-11.600000	21.463435	0.000453	20.741964
82.049843	-2.983300	3.859900	-11.513000	21.455054	0.000455	20.720774
83.048450	-3.027200	3.858200	-11.679000	21.468298	0.000455	20.720275
84.043344	-3.016700	3.857600	-11.636000	21.457052	0.000455	20.736999
85.050222	-3.009500	3.858500	-11.610000	21.489078	0.000454	20.723998
86.045856	-3.014400	3.858600	-11.631000	21.478101	0.000456	20.731981
87.027858	-3.022000	3.858800	-11.660000	21.495164	0.000455	20.728666
88.026462	-2.993800	3.858500	-11.551000	21.495910	0.000455	20.740793
89.028038	-2.994600	3.859500	-11.557000	21.515890	0.000455	20.724275
90.029205	-2.995600	3.859100	-11.559000	21.516735	0.000454	20.723697
91.029637	-3.002600	3.857700	-11.583000	21.509977	0.000456	20.734954
92.049702	-2.996000	3.858200	-11.559000	21.546369	0.000455	20.739601
93.054750	-2.989100	3.858500	-11.533000	21.527040	0.000457	20.712672
94.030474	-3.005100	3.858100	-11.593000	21.547915	0.000456	20.742570
95.060629	-3.000400	3.857400	-11.572000	21.548842	0.000454	20.712201
96.029810	-2.993900	3.857900	-11.548000	21.557194	0.000455	20.724353
97.051928	-2.978400	3.857700	-11.488000	21.588145	0.000457	20.721660
98.051806	-3.010200	3.857000	-11.609000	21.599892	0.000455	20.715397
99.055558	-3.025000	3.855900	-11.663000	21.615701	0.000456	20.742124
100.034868	-2.993800	3.857900	-11.549000	21.603835	0.000454	20.719343
101.040197	-2.986900	3.856900	-11.519000	21.638448	0.000457	20.730274
102.035643	-3.021200	3.855300	-11.646000	21.616204	0.000456	20.728876
103.034353	-2.997400	3.857700	-11.563000	21.649997	0.000457	20.729503
104.037663	-2.995800	3.857800	-11.557000	21.656754	0.000456	20.720143
105.035907	-3.010900	3.854900	-11.606000	21.643541	0.000456	20.733474
106.063251	-3.014500	3.856600	-11.625000	21.646310	0.000457	20.733400
107.038938	-3.022000	3.855200	-11.650000	21.665389	0.000457	20.711241
108.037150	-3.019800	3.854800	-11.640000	21.677605	0.000458	20.731053
109.054950	-3.007500	3.855000	-11.593000	21.683167	0.000459	20.737094
110.057173	-3.009200	3.854800	-11.599000	21.718181	0.000458	20.728988
111.056779	-3.006900	3.854000	-11.588000	21.701352	0.000459	20.729214
112.070526	-2.992300	3.854700	-11.534000	21.717835	0.000458	20.717735
113.055695	-2.997800	3.854600	-11.554000	21.724843	0.000458	20.728068
114.070962	-2.984900	3.855500	-11.507000	21.729832	0.000460	20.710775
115.038888	-2.982500	3.855400	-11.498000	21.743300	0.000459	20.748911
116.044270	-3.015300	3.853200	-11.617000	21.716023	0.000458	20.737733
117.041824	-3.010300	3.853700	-11.600000	21.741977	0.000460	20.748536
118.040683	-2.988900	3.854600	-11.519000	21.759955	0.000461	20.739502
119.041030	-3.022200	3.853200	-11.644000	21.769360	0.000461	20.750812
120.041744	-3.009700	3.853100	-11.596000	21.763428	0.000461	20.715475
121.041669	-2.998300	3.853100	-11.552000	21.789588	0.000459	20.738339
122.042434	-3.004700	3.852500	-11.575000	21.781085	0.000461	20.739312
123.042538	-2.993800	3.852200	-11.532000	21.800933	0.000461	20.736418
124.061844	-2.996000	3.852900	-11.542000	21.799392	0.000461	20.738669
125.062691	-3.003300	3.853600	-11.573000	21.806272	0.000464	20.747926
126.040596	-3.005200	3.852500	-11.577000	21.804076	0.000462	20.731029
127.061949	-3.009600	3.852000	-11.591000	21.855070	0.000463	20.744611
128.071640	-3.013800	3.852500	-11.609000	21.838094	0.000463	20.740422
129.068042	-2.996800	3.852600	-11.545000	21.853125	0.000461	20.738397
130.060055	-2.993900	3.853000	-11.535000	21.847989	0.000465	20.750800
131.061388	-3.026500	3.850100	-11.651000	21.880477	0.000462	20.735428
132.046478	-3.002500	3.853000	-11.567000	21.866966	0.000464	20.753674
133.063313	-3.009600	3.851600	-11.591000	21.893045	0.000465	20.723825
134.043282	-3.001400	3.851500	-11.559000	21.897007	0.000466	20.747233
135.042619	-2.995200	3.851700	-11.535000	21.942033	0.000465	20.747258
136.061646	-2.970800	3.851400	-11.441000	21.916907	0.000467	20.731590
137.046468	-2.989800	3.850700	-11.512000	21.930615	0.000467	20.733457
138.043909	-2.986100	3.851500	-11.499000	21.958809	0.000468	20.748404
139.045903	-3.006700	3.851100	-11.578000	21.942379	0.000467	20.721999
140.047574	-3.029100	3.848900	-11.658000	21.932753	0.000467	20.738442
141.044415	-2.995300	3.850200	-11.531000	21.949455	0.000469	20.732876
142.048399	-3.000900	3.850200	-11.553000	21.980668	0.000469	20.739939
143.048500	-2.980400	3.851200	-11.477000	21.947486	0.000468	20.742285
144.062889	-2.996100	3.849500	-11.533000	21.969395	0.000469	20.732921
145.064072	-3.013700	3.848200	-11.596000	21.954736	0.000469	20.720617
146.064131	-3.022000	3.849200	-11.630000	21.994322	0.000468	20.741279
147.067934	-3.007700	3.850000	-11.579000	22.001427	0.000467	20.734166
148.064838	-3.004300	3.848100	-11.560000	21.985121	0.000470	20.751035
149.060318	-3.026800	3.847000	-11.643000	22.005513	0.000472	20.744421
150.074639	-3.023100	3.848700	-11.634000	22.002074	0.000469	20.753781
151.066234	-3.020500	3.847800	-11.621000	22.034480	0.000468	20.751134
152.062475	-2.997800	3.848200	-11.535000	22.021712	0.000470	20.735981
153.068973	-2.995000	3.847300	-11.521000	22.031263	0.000471	20.740801
154.078817	-3.001200	3.847700	-11.547000	22.052898	0.000470	20.749658
155.065769	-2.976600	3.849400	-11.456000	22.043672	0.000469	20.736154
156.063771	-2.967000	3.849200	-11.420000	22.083111	0.000468	20.739601
157.084372	-2.988500	3.847400	-11.497000	22.090862	0.000470	20.738826
158.062083	-2.994500	3.847700	-11.521000	22.100512	0.000471	20.748012
159.048833	-3.007500	3.847500	-11.571000	22.100335	0.000470	20.751628
160.047917	-3.025600	3.844900	-11.631000	22.095047	0.000470	20.744438
161.047805	-3.000300	3.846500	-11.540000	22.107859	0.000472	20.740195
162.047483	-3.020200	3.845200	-11.612000	22.130897	0.000470	20.749983
163.048530	-2.983200	3.846000	-11.472000	22.150294	0.000472	20.750437
164.048962	-3.006600	3.845700	-11.562000	22.157814	0.000473	20.746586
165.065340	-2.979000	3.847100	-11.459000	22.168937	0.000473	20.761516
166.078988	-3.007200	3.845900	-11.565000	22.189626	0.000473	20.748565
167.067063	-2.997100	3.845900	-11.525000	22.171033	0.000472	20.757450
168.050660	-3.000900	3.845900	-11.539000	22.157670	0.000474	20.758770
169.049756	-3.008500	3.845200	-11.567000	22.155050	0.000474	20.740500
170.072352	-3.003400	3.844000	-11.544000	22.181996	0.000474	20.761314
171.068029	-2.986800	3.845300	-11.484000	22.183342	0.000476	20.763136
172.050116	-2.985600	3.845700	-11.481000	22.211258	0.000475	20.774966
173.050823	-2.988500	3.844300	-11.488000	22.209937	0.000477	20.752305
174.050555	-2.985300	3.844400	-11.476000	22.228455	0.000476	20.761363
175.054895	-3.000300	3.844400	-11.533000	22.207388	0.000476	20.751175
176.065862	-3.021200	3.843700	-11.612000	22.205646	0.000476	20.756069
177.053814	-2.993800	3.843500	-11.505000	22.247414	0.000480	20.760432
178.053628	-2.989800	3.844500	-11.493000	22.228970	0.000479	20.766620
179.053460	-3.008100	3.843000	-11.560000	22.247035	0.000477	20.780441
180.055476	-3.021100	3.843300	-11.610000	22.263556	0.000477	20.753834
181.054730	-3.009200	3.841800	-11.560000	22.268757	0.000479	20.752878
182.054829	-2.993400	3.843200	-11.504000	22.280970	0.000479	20.760366
183.054438	-3.001900	3.842400	-11.533000	22.292751	0.000480	20.765050
184.054719	-3.027200	3.841100	-11.627000	22.294526	0.000479	20.762085
185.053948	-2.997300	3.841600	-11.513000	22.331753	0.000479	20.745782
186.068153	-2.993700	3.841600	-11.499000	22.337633	0.000481	20.756412
187.057083	-2.998300	3.843200	-11.521000	22.323572	0.000480	20.774574
188.055098	-3.009000	3.842300	-11.560000	22.308093	0.000479	20.765713
189.053715	-2.993000	3.841800	-11.497000	22.353024	0.000477	20.762815
190.055411	-2.973600	3.842800	-11.426000	22.350830	0.000481	20.756824
191.056323	-2.988300	3.841900	-11.480000	22.369968	0.000482	20.765557
192.056929	-2.982000	3.841000	-11.452000	22.398575	0.000481	20.782825
193.055083	-2.991000	3.842500	-11.492000	22.384794	0.000483	20.764757
194.055366	-2.984600	3.840100	-11.460000	22.396554	0.000480	20.757092
195.056298	-3.017800	3.839600	-11.585000	22.399543	0.000482	20.758189
196.057077	-3.005700	3.841100	-11.543000	22.431242	0.000483	20.770018
197.056828	-3.019200	3.840700	-11.595000	22.441782	0.000482	20.784841
198.056913	-3.015600	3.840500	-11.581000	22.433535	0.000483	20.783695
199.057541	-3.023400	3.837800	-11.603000	22.461441	0.000483	20.787933
200.058099	-2.989300	3.839300	-11.476000	22.433807	0.000482	20.772587
201.076391	-2.964400	3.840400	-11.384000	22.441601	0.000483	20.782289
202.060105	-2.989900	3.838300	-11.475000	22.440732	0.000484	20.783315
203.080311	-3.010500	3.838800	-11.556000	22.432382	0.000484	20.778273
204.062726	-2.989100	3.838900	-11.473000	22.450448	0.000485	20.793046
205.064442	-3.003000	3.837300	-11.522000	22.468642	0.000483	20.776178
206.059440	-2.981100	3.840000	-11.447000	22.459617	0.000483	20.785633
207.058619	-2.976100	3.839300	-11.425000	22.468843	0.000483	20.816683
208.060555	-2.985000	3.838100	-11.457000	22.474369	0.000484	20.792345
209.073253	-3.005800	3.836400	-11.530000	22.461515	0.000485	20.794172
210.074903	-2.992800	3.837400	-11.483000	22.500960	0.000486	20.787208
211.060939	-2.999200	3.836600	-11.505000	22.494357	0.000484	20.799086
212.061853	-3.014300	3.836600	-11.564000	22.511475	0.000485	20.792048
213.064221	-3.004900	3.836100	-11.525000	22.527798	0.000487	20.788956
214.095741	-2.995600	3.837000	-11.494000	22.526452	0.000488	20.795668
215.085985	-2.980900	3.836600	-11.436000	22.531763	0.000487	20.784392
216.061037	-2.980700	3.837100	-11.436000	22.557151	0.000487	20.809819
217.061425	-2.991200	3.835300	-11.472000	22.564549	0.000489	20.786408
218.067979	-2.982400	3.835700	-11.438000	22.586750	0.000491	20.809118
219.060749	-2.992200	3.835800	-11.476000	22.589965	0.000487	20.800958
220.064711	-3.006300	3.835500	-11.530000	22.619040	0.000489	20.804001
221.065435	-3.017600	3.834100	-11.568000	22.610321	0.000489	20.800010
222.064914	-3.012600	3.834400	-11.551000	22.612437	0.000491	20.809241
223.065108	-3.004600	3.835500	-11.523000	22.594049	0.000490	20.797936
224.073323	-2.979900	3.835000	-11.427000	22.592106	0.000492	20.803576
225.067512	-3.008500	3.834800	-11.536000	22.619831	0.000492	20.797680
226.065760	-2.996700	3.835400	-11.493000	22.608547	0.000491	20.790646
227.082278	-2.996300	3.833900	-11.486000	22.619485	0.000492	20.807291
228.070897	-2.993200	3.833300	-11.473000	22.627660	0.000490	20.802678
229.082068	-2.977700	3.833200	-11.412000	22.642780	0.000493	20.783683
230.087371	-2.995800	3.833400	-11.482000	22.646814	0.000494	20.806689
231.070886	-3.032600	3.830700	-11.616000	22.678333	0.000494	20.805543
232.085648	-2.991900	3.832600	-11.466000	22.682515	0.000495	20.791240
233.068630	-2.989700	3.833700	-11.460000	22.683709	0.000496	20.801919
234.069058	-2.979000	3.832100	-11.415000	22.699355	0.000495	20.817591
235.098290	-2.994900	3.833500	-11.480000	22.725711	0.000499	20.803214
236.067365	-3.007800	3.831700	-11.524000	22.701393	0.000496	20.804933
237.094133	-2.989400	3.831700	-11.453000	22.698273	0.000496	20.790428
238.090936	-2.969400	3.832100	-11.379000	22.712971	0.000496	20.796143
239.083223	-3.002500	3.831200	-11.503000	22.696499	0.000496	20.800505
240.091268	-2.987900	3.831500	-11.447000	22.723949	0.000498	20.796708
241.090422	-2.986600	3.831300	-11.441000	22.726913	0.000496	20.802047
242.091512	-2.986600	3.831600	-11.442000	22.740686	0.000499	20.819162
243.097160	-3.005900	3.830600	-11.514000	22.750622	0.000498	20.810623
244.089625	-3.013200	3.830200	-11.540000	22.760134	0.000498	20.806876
245.086276	-2.980200	3.830700	-11.415000	22.760455	0.000499	20.833749
246.100826	-3.002200	3.829100	-11.495000	22.784842	0.000501	20.827359
247.091737	-2.977000	3.829700	-11.400000	22.777335	0.000500	20.837382
248.101279	-3.005200	3.829300	-11.507000	22.778755	0.000502	20.827899
249.092753	-3.010400	3.828800	-11.525000	22.795713	0.000501	20.830662
250.092263	-3.018200	3.828600	-11.554000	22.773985	0.000500	20.820750
251.095686	-2.997800	3.828800	-11.477000	22.802780	0.000502	20.823043
252.081457	-3.013400	3.828400	-11.536000	22.832644	0.000502	20.838735
253.080645	-3.007300	3.828600	-11.513000	22.845811	0.000506	20.846709
254.080183	-2.990800	3.828200	-11.449000	22.859113	0.000503	20.820207
255.078299	-3.011600	3.827900	-11.528000	22.854125	0.000503	20.812365
256.107684	-3.008700	3.827700	-11.515000	22.885029	0.000502	20.838584
257.093363	-3.010600	3.827000	-11.521000	22.884828	0.000504	20.844546
258.101837	-3.002100	3.827800	-11.491000	22.883449	0.000502	20.834630
259.092107	-3.007400	3.828100	-11.512000	22.875894	0.000505	20.844604
260.093861	-3.016500	3.826200	-11.540000	22.896142	0.000506	20.850665
261.098503	-2.993800	3.826500	-11.454000	22.918329	0.000504	20.822633
262.095387	-3.002900	3.826900	-11.491000	22.914638	0.000506	20.848332
263.099185	-2.970900	3.826700	-11.368000	22.907362	0.000507	20.844836
264.101596	-2.988200	3.826400	-11.433000	22.912758	0.000504	20.856879
265.099236	-3.005900	3.827100	-11.503000	22.908091	0.000506	20.858842
266.097573	-2.992000	3.825900	-11.445000	22.920244	0.000506	20.843044
267.098072	-2.970200	3.827600	-11.368000	22.914109	0.000507	20.852069
268.079477	-2.992100	3.825400	-11.445000	22.916718	0.000505	20.858951
269.096574	-2.972800	3.825600	-11.371000	22.924760	0.000507	20.843301
270.104142	-3.017500	3.824100	-11.538000	22.942514	0.000507	20.863932
271.079382	-2.989700	3.826100	-11.438000	22.966325	0.000508	20.849382
272.078722	-3.006500	3.825100	-11.499000	23.009860	0.000510	20.858861
