LabVIEW Measurement	
Writer_Version	2
Reader_Version	2
Separator	Tab
Decimal_Separator	.
Multi_Headings	No
X_Columns	One
Time_Pref	Absolute
Operator	admin
Description	Clolumns are: time, Current, Voltage, Power, Battery Temp, and Chamber Temp
Date	2024/08/16
Time	13:07:17.8513970375061035156
***End_of_Header***	
	
Channels	6						
Samples	1	1	1	1	1	1	
Date	2024/09/16	2024/09/16	2024/09/16	2024/09/16	2024/09/16	2024/09/16	
Time	08:26:54.9624609947204589844	08:26:54.9684553146362304688	08:26:54.9734864234924316407	08:26:54.9419512748718261719	08:26:54.9419512748718261719	08:26:54.9419512748718261719	
X_Dimension	Time	Time	Time	Time	Time	Time	
X0	0.0000000000000000E+0	0.0000000000000000E+0	0.0000000000000000E+0	0.0000000000000000E+0	0.0000000000000000E+0	0.0000000000000000E+0	
Delta_X	1.000000	1.000000	1.000000	1.000000	1.000000	1.000000	
***End_of_Header***							
X_Value	Untitled	Untitled 1	Untitled 2	Untitled 3	Untitled 4	Untitled 5	Comment
0.000000	-0.005125	4.084900	-0.020902	20.800545	0.000467	20.816192
0.997503	-3.005400	3.915800	-11.768000	20.795521	0.000466	20.805953
1.998024	-3.012900	3.908500	-11.775000	20.791734	0.000466	20.786992
2.995654	-3.013700	3.903700	-11.763000	20.830910	0.000466	20.801987
3.996660	-2.997000	3.901800	-11.692000	20.821704	0.000464	20.779504
4.994030	-2.982400	3.897900	-11.624000	20.809000	0.000462	20.787189
5.995137	-2.998600	3.895000	-11.679000	20.825941	0.000462	20.816458
6.997552	-2.969000	3.894300	-11.561000	20.833083	0.000462	20.804160
8.000678	-2.998000	3.891600	-11.666000	20.834001	0.000463	20.804604
8.996397	-2.998400	3.890200	-11.663000	20.845934	0.000462	20.789985
9.995875	-3.010100	3.888200	-11.702000	20.858859	0.000460	20.784418
10.999687	-2.990500	3.886900	-11.624000	20.848225	0.000460	20.807923
11.997555	-2.997500	3.885500	-11.646000	20.856888	0.000460	20.809000
13.003899	-2.996700	3.884200	-11.639000	20.883335	0.000458	20.815060
14.002050	-2.985600	3.883100	-11.592000	20.882387	0.000457	20.816482
14.995054	-2.998100	3.881200	-11.636000	20.888304	0.000459	20.813865
15.997597	-2.974400	3.882000	-11.546000	20.894190	0.000459	20.785613
16.997840	-2.995300	3.879600	-11.620000	20.915722	0.000458	20.808570
18.002532	-3.028300	3.878200	-11.743000	20.900853	0.000459	20.812190
18.997453	-3.014100	3.877800	-11.688000	20.922212	0.000457	20.806051
19.995242	-2.997300	3.876400	-11.618000	20.907983	0.000457	20.803675
21.000673	-3.016600	3.875000	-11.689000	20.938923	0.000456	20.801901
21.998728	-2.997200	3.875800	-11.615000	20.957043	0.000457	20.792997
23.000149	-3.013000	3.874100	-11.671000	20.968440	0.000456	20.794438
24.000015	-2.981900	3.875500	-11.555000	20.962904	0.000457	20.799807
25.001554	-3.024700	3.873300	-11.715000	20.978568	0.000454	20.817370
25.999056	-3.005600	3.872400	-11.638000	20.984706	0.000456	20.799328
27.001832	-2.990200	3.873300	-11.581000	20.977694	0.000454	20.810806
28.004235	-3.000800	3.873000	-11.621000	21.001822	0.000454	20.818817
29.002479	-2.978600	3.872400	-11.533000	21.026517	0.000454	20.799895
29.999516	-2.977100	3.871900	-11.526000	21.017061	0.000454	20.814618
31.005297	-3.002500	3.871000	-11.621000	21.018058	0.000455	20.813719
32.006361	-3.012000	3.869400	-11.654000	21.036596	0.000451	20.818510
33.001502	-2.993100	3.870200	-11.583000	21.049365	0.000451	20.815160
34.007351	-2.998500	3.870200	-11.603000	21.064959	0.000452	20.809895
35.003617	-3.010700	3.867700	-11.644000	21.060964	0.000452	20.820598
36.003253	-2.996700	3.869000	-11.594000	21.085386	0.000453	20.819896
37.003808	-2.994300	3.867800	-11.579000	21.089450	0.000452	20.814952
38.002101	-3.008000	3.867500	-11.633000	21.076700	0.000451	20.821639
39.004754	-2.994500	3.867100	-11.579000	21.112924	0.000451	20.828000
40.005923	-2.990500	3.868400	-11.567000	21.137739	0.000453	20.847132
41.006227	-3.010700	3.867100	-11.642000	21.096124	0.000450	20.837274
42.002652	-3.005900	3.866800	-11.622000	21.137186	0.000450	20.830458
43.006220	-3.004200	3.866300	-11.614000	21.142880	0.000452	20.828093
44.008648	-3.030700	3.864500	-11.711000	21.147669	0.000450	20.816289
45.005888	-2.988100	3.865600	-11.549000	21.142178	0.000450	20.829288
46.004756	-2.990500	3.865100	-11.558000	21.178893	0.000451	20.840883
47.005429	-2.991800	3.864400	-11.559000	21.183564	0.000449	20.831806
48.007945	-3.010400	3.864600	-11.633000	21.195532	0.000449	20.827182
49.006664	-3.001900	3.864800	-11.600000	21.194387	0.000453	20.828408
50.011756	-3.000900	3.864000	-11.594000	21.199724	0.000453	20.828057
51.006212	-2.997900	3.865100	-11.586000	21.228760	0.000449	20.820120
52.006286	-3.016300	3.863100	-11.652000	21.219532	0.000448	20.839337
53.010519	-3.029100	3.863000	-11.700000	21.260836	0.000449	20.834190
54.006964	-3.020200	3.861600	-11.661000	21.253130	0.000448	20.820317
55.009046	-2.987200	3.863300	-11.539000	21.277178	0.000450	20.831573
56.017623	-3.009300	3.863100	-11.624000	21.266603	0.000449	20.809614
57.007969	-3.001900	3.862600	-11.594000	21.275757	0.000450	20.847219
58.011051	-2.989900	3.862000	-11.545000	21.288800	0.000448	20.823285
59.015760	-2.999500	3.862400	-11.585000	21.299276	0.000450	20.848464
60.012940	-3.008400	3.862100	-11.618000	21.291317	0.000449	20.837657
61.011555	-3.008000	3.862000	-11.615000	21.304514	0.000449	20.824781
62.014830	-2.990900	3.862100	-11.551000	21.316042	0.000450	20.826357
63.011697	-2.993400	3.861700	-11.559000	21.305961	0.000449	20.806314
64.021458	-2.989600	3.860800	-11.541000	21.322401	0.000450	20.805692
65.016090	-3.002300	3.860800	-11.591000	21.330655	0.000450	20.822010
66.013781	-2.987100	3.861200	-11.533000	21.340459	0.000449	20.820440
67.014621	-3.001500	3.860300	-11.586000	21.351784	0.000452	20.819442
68.011808	-3.010700	3.859900	-11.621000	21.365731	0.000449	20.804473
69.012609	-3.001500	3.859400	-11.583000	21.366920	0.000451	20.808033
70.014856	-3.002500	3.859400	-11.587000	21.397152	0.000449	20.830693
71.014994	-2.995800	3.860600	-11.564000	21.396352	0.000450	20.838427
72.017176	-2.996300	3.858900	-11.561000	21.414686	0.000449	20.819788
73.014488	-3.001600	3.860600	-11.587000	21.411886	0.000448	20.806081
74.014526	-3.013200	3.859100	-11.628000	21.422016	0.000452	20.800569
75.021013	-2.984800	3.858600	-11.517000	21.413215	0.000449	20.805040
76.020276	-3.007700	3.858200	-11.604000	21.430620	0.000450	20.810601
77.017787	-3.015000	3.858400	-11.632000	21.445212	0.000451	20.807657
78.018642	-2.995100	3.858000	-11.554000	21.464962	0.000449	20.788537
79.029120	-3.011800	3.857300	-11.616000	21.470778	0.000451	20.827072
80.019183	-3.021800	3.857400	-11.656000	21.455460	0.000451	20.815065
81.019483	-3.008500	3.857900	-11.606000	21.483098	0.000451	20.810477
82.017625	-3.012600	3.857900	-11.622000	21.466852	0.000451	20.807024
83.025635	-2.995700	3.856000	-11.551000	21.499051	0.000451	20.815534
84.019645	-2.998600	3.857500	-11.566000	21.491001	0.000449	20.817910
85.020963	-2.988200	3.856000	-11.521000	21.510010	0.000450	20.822706
86.021675	-2.993500	3.856400	-11.543000	21.537187	0.000450	20.807701
87.022989	-2.994200	3.858000	-11.551000	21.534196	0.000450	20.811346
88.019750	-2.978100	3.856200	-11.483000	21.542596	0.000453	20.779449
89.018496	-3.003200	3.857200	-11.583000	21.552824	0.000451	20.793002
90.019941	-2.993900	3.857100	-11.546000	21.556288	0.000451	20.807374
91.018169	-2.994500	3.855700	-11.544000	21.544620	0.000450	20.802337
92.017417	-3.008200	3.855500	-11.597000	21.564689	0.000452	20.778796
93.023268	-3.002900	3.853800	-11.571000	21.563667	0.000453	20.798163
94.029944	-3.002000	3.855000	-11.571000	21.570251	0.000450	20.799062
95.020868	-3.011600	3.854000	-11.606000	21.591377	0.000451	20.798864
96.021165	-3.004600	3.855700	-11.584000	21.588829	0.000450	20.783513
97.021487	-3.019800	3.854000	-11.637000	21.610256	0.000452	20.789307
98.022491	-2.987300	3.855700	-11.517000	21.626316	0.000450	20.781671
99.026000	-2.991600	3.855100	-11.531000	21.632218	0.000452	20.789948
100.021519	-2.982000	3.856200	-11.498000	21.620225	0.000452	20.793120
101.021442	-2.994600	3.854500	-11.541000	21.644069	0.000451	20.777626
102.022047	-3.002400	3.854000	-11.570000	21.646112	0.000451	20.779196
103.023800	-3.017500	3.854100	-11.628000	21.656566	0.000450	20.781598
104.025460	-3.009800	3.854000	-11.598000	21.677862	0.000453	20.792478
105.023890	-2.999300	3.853600	-11.557000	21.670755	0.000453	20.773986
106.026284	-2.990000	3.853500	-11.521000	21.666639	0.000453	20.771763
107.024357	-2.982600	3.854000	-11.494000	21.675364	0.000455	20.786185
108.023453	-2.999900	3.852600	-11.557000	21.673198	0.000454	20.766948
109.031256	-3.011600	3.852300	-11.601000	21.696734	0.000453	20.775803
110.028221	-3.022100	3.852800	-11.643000	21.713243	0.000453	20.777626
111.024396	-3.005700	3.853100	-11.580000	21.717827	0.000454	20.774153
112.024978	-3.009400	3.852500	-11.593000	21.729726	0.000454	20.765199
113.025176	-3.018500	3.852400	-11.627000	21.754116	0.000454	20.763056
114.025369	-2.994400	3.851700	-11.533000	21.734488	0.000454	20.796992
115.025978	-2.995700	3.851100	-11.535000	21.737934	0.000455	20.759663
116.032377	-2.990700	3.851300	-11.517000	21.750621	0.000453	20.771887
117.025382	-3.003900	3.850600	-11.567000	21.754190	0.000455	20.788735
118.027696	-2.989100	3.850100	-11.507000	21.766384	0.000453	20.789560
119.029452	-3.004200	3.850800	-11.567000	21.786085	0.000454	20.778457
120.030666	-3.005100	3.851700	-11.573000	21.786121	0.000456	20.771380
121.030160	-2.988700	3.849900	-11.505000	21.795929	0.000455	20.777878
122.025770	-3.000400	3.852000	-11.557000	21.824808	0.000457	20.755573
123.030881	-2.983900	3.849700	-11.486000	21.826462	0.000455	20.763868
124.027032	-2.976800	3.851700	-11.464000	21.823718	0.000455	20.759699
125.035064	-2.998100	3.850400	-11.543000	21.837709	0.000456	20.762322
126.029490	-2.993700	3.849100	-11.522000	21.829329	0.000455	20.778591
127.027345	-2.994700	3.850200	-11.529000	21.876677	0.000456	20.763393
128.027812	-3.010200	3.848500	-11.584000	21.871994	0.000458	20.777199
129.030086	-3.017100	3.849600	-11.614000	21.882570	0.000457	20.754593
130.030048	-2.983100	3.850700	-11.485000	21.886310	0.000457	20.760234
131.033796	-3.028700	3.848800	-11.655000	21.918324	0.000458	20.765726
132.030419	-3.015500	3.848700	-11.605000	21.881450	0.000459	20.762007
133.029837	-3.007900	3.848300	-11.575000	21.897285	0.000459	20.754623
134.032560	-3.017200	3.848300	-11.610000	21.899081	0.000459	20.760215
135.031898	-2.981900	3.848600	-11.475000	21.902674	0.000458	20.777562
136.035387	-2.995900	3.849100	-11.530000	21.921326	0.000459	20.730797
137.031055	-2.991300	3.847300	-11.508000	21.916362	0.000459	20.763287
138.029753	-2.985200	3.848100	-11.487000	21.931753	0.000459	20.762098
139.034465	-2.970100	3.848700	-11.430000	21.940027	0.000461	20.773226
140.032980	-2.975800	3.849100	-11.453000	21.962819	0.000460	20.753840
141.035529	-3.001000	3.847200	-11.544000	21.979649	0.000461	20.767369
142.030505	-2.980500	3.847700	-11.467000	21.982694	0.000459	20.754770
143.033940	-3.014200	3.847500	-11.595000	21.945249	0.000461	20.737675
144.035386	-2.979300	3.846900	-11.460000	21.960806	0.000462	20.765103
145.034757	-2.977800	3.848000	-11.458000	21.981432	0.000462	20.742600
146.032156	-2.986800	3.847000	-11.489000	21.985394	0.000463	20.756998
147.037846	-3.006900	3.846800	-11.566000	21.986692	0.000465	20.744072
148.040342	-3.009000	3.846200	-11.572000	22.000231	0.000464	20.749565
149.035080	-3.003100	3.846500	-11.550000	22.004291	0.000462	20.765958
150.038370	-3.026800	3.844100	-11.634000	22.045923	0.000463	20.744571
151.034168	-2.993500	3.846100	-11.512000	22.031067	0.000464	20.734441
152.040077	-3.024400	3.846200	-11.631000	22.034284	0.000464	20.754258
153.038258	-2.998700	3.844500	-11.528000	22.016365	0.000464	20.746276
154.035995	-3.001400	3.844500	-11.538000	22.047976	0.000463	20.740937
155.035328	-3.022600	3.844700	-11.620000	22.077618	0.000465	20.737895
156.039656	-3.008900	3.845200	-11.568000	22.099522	0.000468	20.734219
157.037694	-3.002100	3.844400	-11.541000	22.110287	0.000466	20.736935
158.038373	-2.995500	3.844300	-11.515000	22.104012	0.000464	20.742508
159.034336	-3.016500	3.844500	-11.597000	22.110569	0.000464	20.744330
160.035357	-3.002200	3.842700	-11.536000	22.150530	0.000466	20.739293
161.037354	-2.977500	3.844400	-11.445000	22.127969	0.000465	20.739939
162.034563	-2.988500	3.844100	-11.488000	22.124107	0.000465	20.739391
163.039063	-3.008800	3.843700	-11.564000	22.136218	0.000468	20.742033
164.038522	-2.994700	3.843000	-11.508000	22.154891	0.000467	20.737495
165.035501	-2.987300	3.841900	-11.475000	22.153027	0.000468	20.762182
166.036540	-3.008700	3.841800	-11.557000	22.185151	0.000467	20.724642
167.037117	-3.006500	3.843200	-11.554000	22.158187	0.000468	20.715663
168.043381	-2.979200	3.843800	-11.450000	22.214838	0.000470	20.726865
169.037910	-3.001100	3.842400	-11.531000	22.203774	0.000468	20.744237
170.035604	-2.992800	3.842600	-11.499000	22.213793	0.000469	20.722499
171.037052	-2.984500	3.842900	-11.468000	22.187795	0.000471	20.739145
172.037220	-3.000100	3.841000	-11.523000	22.192931	0.000470	20.735752
173.037838	-3.003900	3.841300	-11.538000	22.215490	0.000471	20.762133
174.039717	-3.004600	3.840500	-11.538000	22.221222	0.000470	20.747483
175.036197	-3.017000	3.841100	-11.588000	22.230447	0.000472	20.751504
176.038943	-2.995300	3.842000	-11.507000	22.248147	0.000470	20.762114
177.041526	-2.993500	3.840500	-11.495000	22.253258	0.000470	20.716968
178.043261	-3.010500	3.840400	-11.560000	22.237545	0.000471	20.738221
179.039950	-3.012200	3.840400	-11.567000	22.216665	0.000471	20.750032
180.037323	-3.015400	3.839700	-11.578000	22.232040	0.000471	20.729390
181.039834	-3.011200	3.840000	-11.562000	22.261253	0.000472	20.736355
182.036508	-3.007000	3.839200	-11.543000	22.268258	0.000470	20.729144
183.036395	-3.011300	3.838800	-11.559000	22.301983	0.000474	20.715497
184.038314	-3.004400	3.841100	-11.539000	22.290772	0.000471	20.746472
185.038720	-3.000300	3.838700	-11.517000	22.290224	0.000474	20.740708
186.041752	-3.017700	3.839200	-11.584000	22.286836	0.000474	20.738263
187.043145	-3.012000	3.838400	-11.560000	22.318341	0.000472	20.730454
188.039153	-3.001000	3.839000	-11.521000	22.308895	0.000477	20.719573
189.038915	-2.979000	3.838400	-11.433000	22.297456	0.000475	20.715231
190.038544	-3.008100	3.837700	-11.544000	22.328881	0.000476	20.729155
191.041625	-3.022100	3.837700	-11.597000	22.321133	0.000476	20.724241
192.038048	-3.025700	3.837100	-11.608000	22.351315	0.000477	20.732653
193.040803	-3.003000	3.838600	-11.525000	22.355158	0.000476	20.710895
194.038191	-3.012000	3.835600	-11.552000	22.343167	0.000476	20.728761
195.042122	-3.008100	3.836900	-11.541000	22.349624	0.000477	20.711043
196.042976	-2.979200	3.838100	-11.433000	22.369916	0.000477	20.707182
197.044486	-3.019600	3.835700	-11.581000	22.356633	0.000478	20.728495
198.044137	-2.996000	3.835800	-11.491000	22.387510	0.000476	20.730491
199.041835	-3.007100	3.836300	-11.535000	22.393345	0.000477	20.732541
200.042118	-2.988900	3.836300	-11.465000	22.406622	0.000479	20.727344
201.042470	-3.001500	3.835500	-11.511000	22.409764	0.000476	20.708204
202.040488	-2.991500	3.836100	-11.475000	22.418716	0.000478	20.729973
203.044728	-2.997800	3.836500	-11.500000	22.435159	0.000480	20.738853
204.043731	-3.000400	3.835000	-11.505000	22.414000	0.000480	20.723353
205.048555	-3.006600	3.835500	-11.531000	22.428684	0.000479	20.717195
206.052474	-3.010200	3.833500	-11.538000	22.430627	0.000480	20.700173
207.055013	-2.984000	3.835800	-11.445000	22.425093	0.000480	20.711702
208.044444	-2.974600	3.836300	-11.411000	22.444432	0.000481	20.714947
209.042913	-2.978700	3.834400	-11.420000	22.460905	0.000479	20.705365
210.041943	-2.992000	3.834200	-11.470000	22.434046	0.000481	20.730625
211.042024	-3.010900	3.832800	-11.540000	22.434593	0.000481	20.716948
212.041753	-2.982700	3.834000	-11.434000	22.454504	0.000482	20.728353
213.051912	-3.010400	3.833400	-11.539000	22.484756	0.000483	20.715027
214.042593	-2.995600	3.834400	-11.486000	22.513415	0.000482	20.714805
215.042653	-2.993300	3.834200	-11.475000	22.504573	0.000484	20.723020
216.046568	-2.995400	3.833300	-11.481000	22.524654	0.000483	20.704249
217.047057	-3.000600	3.832300	-11.498000	22.511921	0.000483	20.717102
218.049077	-3.003300	3.831600	-11.506000	22.534099	0.000485	20.716079
219.042832	-3.001600	3.833400	-11.505000	22.540100	0.000486	20.710235
220.041780	-3.019000	3.831300	-11.566000	22.527722	0.000485	20.711590
221.057811	-2.998700	3.831700	-11.490000	22.559461	0.000483	20.695960
222.047606	-2.982900	3.832000	-11.430000	22.551044	0.000486	20.694168
223.055458	-2.994300	3.831700	-11.473000	22.548375	0.000485	20.695763
224.048122	-2.994100	3.830200	-11.466000	22.559147	0.000486	20.699913
225.043717	-2.982000	3.830800	-11.423000	22.589446	0.000488	20.708449
226.048113	-2.974600	3.832100	-11.398000	22.592059	0.000486	20.718653
227.055643	-3.020100	3.828900	-11.562000	22.599461	0.000486	20.695245
228.047792	-3.014400	3.830900	-11.547000	22.632224	0.000487	20.700086
229.044728	-2.983100	3.830300	-11.425000	22.658310	0.000489	20.703455
230.048487	-2.988300	3.830100	-11.445000	22.691077	0.000486	20.700240
231.045887	-2.976600	3.830700	-11.402000	22.703858	0.000490	20.690756
232.052087	-2.989600	3.829300	-11.447000	22.648073	0.000488	20.699840
233.045160	-3.023800	3.828100	-11.574000	22.669376	0.000489	20.691304
234.045632	-3.015400	3.829100	-11.545000	22.662354	0.000488	20.705135
235.051548	-3.017600	3.828300	-11.551000	22.700397	0.000491	20.695350
236.047297	-3.007800	3.828500	-11.514000	22.677798	0.000491	20.687412
237.050113	-3.014700	3.829800	-11.545000	22.706704	0.000491	20.692184
238.054199	-2.982700	3.829400	-11.421000	22.682679	0.000490	20.698466
239.052536	-3.007600	3.828600	-11.513000	22.716780	0.000490	20.688053
240.045730	-3.009800	3.826600	-11.516000	22.750197	0.000490	20.712994
241.049063	-3.005500	3.828600	-11.506000	22.752441	0.000491	20.701016
242.046988	-3.009900	3.827200	-11.519000	22.752490	0.000492	20.709126
243.052912	-2.998500	3.827200	-11.475000	22.748747	0.000491	20.695892
244.049751	-2.985200	3.826500	-11.422000	22.761853	0.000493	20.695744
245.071797	-3.010400	3.827400	-11.521000	22.734878	0.000492	20.693853
246.053137	-3.002500	3.825700	-11.485000	22.716067	0.000492	20.703935
247.051843	-3.001900	3.826700	-11.486000	22.729696	0.000492	20.690084
248.055447	-3.027800	3.826300	-11.584000	22.729567	0.000493	20.685688
249.053296	-2.997600	3.826700	-11.470000	22.747855	0.000492	20.683618
250.055227	-3.008000	3.826600	-11.509000	22.785396	0.000494	20.685663
251.050028	-3.016200	3.825000	-11.536000	22.766162	0.000494	20.691052
252.047402	-2.984500	3.826600	-11.419000	22.801662	0.000495	20.698639
253.050120	-3.004300	3.825500	-11.492000	22.814362	0.000494	20.694291
254.050339	-3.001600	3.825000	-11.480000	22.801035	0.000496	20.697537
255.051659	-3.012200	3.824600	-11.520000	22.810999	0.000494	20.685232
256.051970	-3.005600	3.825400	-11.497000	22.813341	0.000495	20.673353
257.051812	-2.984900	3.823900	-11.413000	22.801478	0.000495	20.681858
258.048637	-2.998500	3.823700	-11.465000	22.818665	0.000499	20.690067
259.050453	-2.987800	3.823200	-11.422000	22.798085	0.000495	20.688891
260.052382	-3.012400	3.822200	-11.513000	22.812586	0.000497	20.655998
261.049872	-3.021400	3.823700	-11.552000	22.794169	0.000498	20.696823
262.053757	-2.993100	3.822700	-11.441000	22.810509	0.000497	20.677628
263.052568	-2.991400	3.823500	-11.437000	22.825550	0.000495	20.689378
264.057139	-2.999300	3.823000	-11.466000	22.827616	0.000497	20.692870
265.052653	-3.005300	3.822200	-11.486000	22.824253	0.000498	20.693295
266.053837	-2.998600	3.822900	-11.462000	22.860157	0.000499	20.690382
267.054821	-3.005600	3.821700	-11.485000	22.878087	0.000499	20.679420
268.052247	-3.021400	3.822300	-11.548000	22.878836	0.000499	20.682542
269.075488	-2.995700	3.821800	-11.448000	22.882568	0.000501	20.705723
270.055313	-2.999600	3.822800	-11.465000	22.866722	0.000499	20.701227
271.054935	-3.010100	3.821400	-11.502000	22.921377	0.000499	20.683910
272.056817	-2.989800	3.820500	-11.421000	22.918882	0.000501	20.697532
