LabVIEW Measurement	
Writer_Version	2
Reader_Version	2
Separator	Tab
Decimal_Separator	.
Multi_Headings	No
X_Columns	One
Time_Pref	Absolute
Operator	admin
Description	Clolumns are: time, Current, Voltage, Power, Battery Temp, and Chamber Temp
Date	2024/08/16
Time	13:07:17.8513970375061035156
***End_of_Header***	
	
Channels	6						
Samples	1	1	1	1	1	1	
Date	2024/09/19	2024/09/19	2024/09/19	2024/09/19	2024/09/19	2024/09/19	
Time	08:57:40.1501221656799316406	08:57:40.156177520751953125	08:57:40.164142608642578125	08:57:40.1345233917236328125	08:57:40.1345233917236328125	08:57:40.1345233917236328125	
X_Dimension	Time	Time	Time	Time	Time	Time	
X0	0.0000000000000000E+0	0.0000000000000000E+0	0.0000000000000000E+0	0.0000000000000000E+0	0.0000000000000000E+0	0.0000000000000000E+0	
Delta_X	1.000000	1.000000	1.000000	1.000000	1.000000	1.000000	
***End_of_Header***							
X_Value	Untitled	Untitled 1	Untitled 2	Untitled 3	Untitled 4	Untitled 5	Comment
0.000000	0.014085	4.085700	0.057567	20.812413	0.000468	20.831379
0.999719	-2.993700	3.913700	-11.716000	20.810215	0.000468	20.809741
2.006108	-3.005900	3.906500	-11.742000	20.800560	0.000466	20.825690
3.001085	-3.007800	3.901500	-11.735000	20.810485	0.000466	20.833718
4.010871	-3.000100	3.899000	-11.696000	20.821619	0.000465	20.832050
5.003790	-2.976100	3.897500	-11.599000	20.821089	0.000464	20.834365
6.000483	-2.987700	3.894100	-11.633000	20.845073	0.000465	20.834168
7.010488	-3.018200	3.890700	-11.742000	20.844346	0.000462	20.827751
8.005011	-3.005200	3.888900	-11.687000	20.837684	0.000462	20.847166
9.001744	-2.993800	3.888200	-11.640000	20.852038	0.000463	20.860572
10.010012	-2.997600	3.885700	-11.647000	20.862763	0.000464	20.849014
11.002171	-2.995300	3.885200	-11.636000	20.869068	0.000463	20.796999
12.007056	-3.014400	3.882500	-11.703000	20.895250	0.000460	20.857794
13.003332	-3.007900	3.880600	-11.672000	20.878957	0.000459	20.821587
14.004871	-3.019900	3.880000	-11.716000	20.892904	0.000457	20.818465
15.000979	-2.997200	3.879800	-11.627000	20.896623	0.000459	20.848736
16.004409	-2.982600	3.877900	-11.565000	20.918449	0.000461	20.842116
17.005165	-3.002200	3.877000	-11.639000	20.916855	0.000460	20.833884
18.002783	-3.002000	3.875700	-11.634000	20.913210	0.000457	20.838773
19.003371	-2.965000	3.877100	-11.495000	20.943053	0.000456	20.860084
20.014570	-2.999700	3.874500	-11.621000	20.923443	0.000457	20.849481
21.005251	-2.985700	3.874800	-11.567000	20.940258	0.000457	20.865348
22.006216	-2.986900	3.874900	-11.572000	20.961845	0.000456	20.837153
23.004723	-3.000800	3.872200	-11.619000	20.952036	0.000456	20.850577
24.008008	-3.017000	3.872300	-11.681000	20.949838	0.000455	20.838896
25.009455	-3.001700	3.870200	-11.617000	21.002394	0.000455	20.843096
26.008923	-3.016200	3.870200	-11.673000	20.992204	0.000454	20.836697
27.011410	-3.012800	3.869500	-11.657000	20.995406	0.000453	20.866925
28.005729	-3.012900	3.869000	-11.656000	20.997092	0.000454	20.837319
29.005841	-3.012300	3.869400	-11.655000	21.018284	0.000455	20.853773
30.011412	-3.024300	3.868400	-11.698000	21.025764	0.000454	20.860305
31.005647	-2.997300	3.867700	-11.592000	21.033251	0.000456	20.827492
32.005128	-3.008900	3.868300	-11.638000	21.032180	0.000453	20.852024
33.013961	-3.003600	3.868200	-11.617000	21.057280	0.000454	20.831137
34.006757	-2.992600	3.867300	-11.573000	21.061676	0.000453	20.837905
35.007694	-3.008600	3.866100	-11.630000	21.082534	0.000452	20.843595
36.008018	-3.002100	3.867300	-11.608000	21.077639	0.000452	20.844388
37.008649	-3.002200	3.864700	-11.601000	21.074451	0.000451	20.816544
38.009306	-2.971200	3.866600	-11.487000	21.095161	0.000451	20.828250
39.010496	-2.990000	3.866900	-11.561000	21.109504	0.000452	20.823157
40.010739	-2.998100	3.864300	-11.584000	21.130165	0.000451	20.846668
41.008790	-2.990800	3.864400	-11.556000	21.113426	0.000451	20.821865
42.012225	-2.994500	3.864400	-11.570000	21.140642	0.000450	20.825381
43.011573	-2.992200	3.865300	-11.565000	21.125899	0.000450	20.805417
44.012502	-3.011400	3.864100	-11.636000	21.153971	0.000448	20.827333
45.014227	-2.997600	3.864600	-11.583000	21.184054	0.000451	20.822813
46.013964	-3.001400	3.863700	-11.596000	21.162675	0.000450	20.811859
47.011503	-2.998300	3.861900	-11.579000	21.166221	0.000449	20.832475
48.014699	-3.004300	3.863800	-11.606000	21.183439	0.000451	20.839742
49.018905	-3.003200	3.862300	-11.598000	21.180890	0.000450	20.824390
50.020944	-2.999700	3.861900	-11.584000	21.218434	0.000451	20.794143
51.019826	-3.006300	3.863000	-11.613000	21.189380	0.000449	20.819132
52.018023	-2.995100	3.861200	-11.564000	21.228328	0.000450	20.817316
53.016716	-2.994700	3.862200	-11.565000	21.230673	0.000452	20.822033
54.012593	-3.010200	3.861200	-11.622000	21.251201	0.000448	20.829293
55.014122	-3.018000	3.859600	-11.647000	21.267930	0.000451	20.821373
56.017435	-3.005300	3.861500	-11.604000	21.259936	0.000450	20.820488
57.015126	-2.976300	3.860000	-11.488000	21.253318	0.000450	20.809126
58.017394	-2.983700	3.859800	-11.515000	21.275015	0.000452	20.791951
59.015763	-3.006100	3.859500	-11.601000	21.280710	0.000451	20.793381
60.016933	-3.014700	3.858500	-11.631000	21.289136	0.000448	20.800388
61.017843	-2.992200	3.859200	-11.546000	21.306991	0.000449	20.809242
62.020584	-3.013700	3.858500	-11.628000	21.302824	0.000448	20.812659
63.017711	-3.024500	3.859500	-11.672000	21.332731	0.000449	20.803700
64.016932	-2.983200	3.859100	-11.511000	21.324274	0.000450	20.798558
65.018715	-3.004400	3.859300	-11.594000	21.357450	0.000450	20.797610
66.019956	-3.025100	3.857100	-11.667000	21.365057	0.000453	20.810910
67.017528	-2.988600	3.858600	-11.531000	21.348764	0.000447	20.806464
68.020284	-3.001500	3.858400	-11.580000	21.367476	0.000449	20.783459
69.021018	-3.009900	3.858600	-11.613000	21.385527	0.000450	20.799148
70.019419	-3.001500	3.858200	-11.580000	21.400871	0.000449	20.801698
71.019642	-2.999200	3.857100	-11.567000	21.385158	0.000449	20.797357
72.026978	-2.995100	3.857500	-11.553000	21.413912	0.000451	20.819487
73.016801	-3.015700	3.857500	-11.632000	21.413112	0.000449	20.794031
74.017108	-3.016800	3.855600	-11.631000	21.415987	0.000451	20.787424
75.020923	-3.008800	3.856300	-11.602000	21.443595	0.000452	20.805565
76.019934	-2.976500	3.857900	-11.482000	21.421445	0.000450	20.800946
77.021196	-3.010300	3.856200	-11.607000	21.441472	0.000449	20.796802
78.026680	-3.011200	3.856800	-11.612000	21.440727	0.000451	20.796057
79.021467	-3.016400	3.854400	-11.626000	21.454463	0.000449	20.778981
80.018204	-3.004700	3.855500	-11.584000	21.465492	0.000449	20.784326
81.029272	-2.997200	3.856000	-11.556000	21.488614	0.000451	20.793711
82.018252	-3.005800	3.856600	-11.591000	21.481752	0.000450	20.805337
83.022488	-2.992600	3.855300	-11.537000	21.497266	0.000450	20.810429
84.026815	-3.014600	3.853300	-11.615000	21.473998	0.000450	20.790940
85.021482	-2.993700	3.856000	-11.542000	21.511735	0.000450	20.807837
86.024056	-2.991100	3.854300	-11.527000	21.514276	0.000451	20.800423
87.033247	-2.993400	3.853900	-11.534000	21.526695	0.000451	20.775391
88.028172	-3.020700	3.853900	-11.641000	21.548843	0.000452	20.788545
89.022677	-3.004900	3.854600	-11.582000	21.561889	0.000451	20.795436
90.024892	-3.010600	3.853700	-11.601000	21.554438	0.000451	20.778496
91.025550	-3.004500	3.853700	-11.577000	21.579667	0.000453	20.792837
92.024993	-3.015500	3.853700	-11.620000	21.596079	0.000451	20.781285
93.024918	-2.982800	3.853200	-11.493000	21.608416	0.000452	20.766129
94.028411	-3.006500	3.852300	-11.580000	21.600793	0.000452	20.783631
95.027661	-2.999900	3.853700	-11.559000	21.620391	0.000451	20.793760
96.027891	-3.007400	3.852200	-11.585000	21.619093	0.000450	20.771124
97.028331	-3.003000	3.852400	-11.568000	21.629548	0.000451	20.798656
98.025144	-2.997500	3.852200	-11.546000	21.645886	0.000452	20.783237
99.027311	-3.027800	3.851400	-11.659000	21.644335	0.000453	20.770779
100.026402	-2.986600	3.852300	-11.504000	21.651743	0.000453	20.799057
101.026490	-2.989200	3.852000	-11.513000	21.654446	0.000451	20.788959
102.053283	-2.977100	3.853000	-11.470000	21.681582	0.000455	20.778183
103.031667	-3.004600	3.851500	-11.570000	21.664673	0.000452	20.784020
104.028062	-2.982200	3.852200	-11.487000	21.696515	0.000455	20.790757
105.035461	-3.004500	3.850900	-11.569000	21.698810	0.000455	20.776458
106.028828	-3.015200	3.850400	-11.608000	21.712304	0.000454	20.774316
107.025182	-3.011700	3.850300	-11.595000	21.717270	0.000454	20.770277
108.030736	-3.014500	3.851300	-11.608000	21.750434	0.000452	20.774070
109.030313	-3.009800	3.850800	-11.588000	21.727503	0.000453	20.795691
110.029487	-2.988600	3.851200	-11.509000	21.737575	0.000454	20.766891
111.026946	-3.001900	3.851100	-11.559000	21.748946	0.000454	20.769736
112.032022	-3.006900	3.850500	-11.578000	21.763190	0.000454	20.785889
113.053541	-3.006700	3.849900	-11.574000	21.765387	0.000455	20.803260
114.030930	-3.013700	3.849000	-11.599000	21.780603	0.000457	20.782928
115.031758	-3.012300	3.849000	-11.594000	21.757333	0.000456	20.776707
116.028964	-3.013000	3.848700	-11.595000	21.771342	0.000459	20.761805
117.030781	-2.984800	3.849300	-11.488000	21.786811	0.000459	20.786770
118.029510	-2.978300	3.849900	-11.465000	21.796286	0.000455	20.795305
119.035698	-2.998700	3.848300	-11.539000	21.824759	0.000458	20.765956
120.035839	-3.002300	3.848000	-11.552000	21.822790	0.000457	20.795754
121.034346	-3.024300	3.847500	-11.635000	21.823369	0.000457	20.771678
122.038507	-3.015900	3.847500	-11.603000	21.851424	0.000459	20.780792
123.034321	-2.989200	3.848000	-11.500000	21.859699	0.000455	20.770108
124.033341	-2.999400	3.847600	-11.540000	21.840424	0.000459	20.762669
125.035363	-2.991100	3.848100	-11.509000	21.885655	0.000458	20.759578
126.033178	-2.972600	3.847800	-11.437000	21.881791	0.000456	20.765668
127.036097	-3.009600	3.846800	-11.576000	21.870324	0.000461	20.748974
128.033244	-2.978300	3.848300	-11.460000	21.886707	0.000460	20.765847
129.032740	-2.988500	3.847900	-11.498000	21.910873	0.000459	20.753526
130.033072	-3.010700	3.847500	-11.582000	21.906167	0.000460	20.754031
131.033454	-3.012100	3.846000	-11.584000	21.889465	0.000461	20.768608
132.034210	-3.003400	3.846600	-11.552000	21.903104	0.000462	20.762819
133.038353	-3.017200	3.845900	-11.603000	21.912880	0.000462	20.767389
134.035132	-3.009700	3.847300	-11.579000	21.949901	0.000459	20.774575
135.037217	-3.026700	3.844400	-11.635000	21.957904	0.000461	20.754137
136.035370	-3.009900	3.844400	-11.571000	21.968080	0.000462	20.755787
137.036431	-2.993400	3.845500	-11.510000	21.970136	0.000463	20.757846
138.037478	-2.995100	3.846700	-11.519000	21.968185	0.000460	20.763954
139.040119	-2.981100	3.846900	-11.467000	21.983349	0.000461	20.754951
140.039361	-2.990800	3.845300	-11.500000	21.971065	0.000463	20.770156
141.037139	-2.992900	3.844700	-11.506000	22.003103	0.000461	20.759553
142.036569	-2.995300	3.844500	-11.514000	22.002678	0.000463	20.780465
143.034690	-3.029100	3.843900	-11.641000	22.010484	0.000462	20.771684
144.041080	-2.991100	3.845900	-11.503000	22.027161	0.000463	20.758506
145.041412	-3.025900	3.843400	-11.629000	22.037311	0.000465	20.766770
146.039942	-2.995200	3.845200	-11.516000	22.033595	0.000462	20.754516
147.039434	-3.005000	3.843400	-11.549000	22.046864	0.000462	20.751678
148.043622	-2.990200	3.845300	-11.498000	22.052923	0.000464	20.753476
149.040244	-3.004200	3.843200	-11.545000	22.044798	0.000461	20.747238
150.045563	-3.015900	3.842800	-11.588000	22.033928	0.000464	20.752004
151.039882	-2.998100	3.843700	-11.523000	22.075110	0.000465	20.752454
152.042774	-2.995600	3.842300	-11.509000	22.088617	0.000464	20.756967
153.040780	-2.997500	3.842000	-11.515000	22.082386	0.000464	20.753100
154.044431	-2.993300	3.843400	-11.503000	22.093606	0.000465	20.742047
155.046392	-3.019300	3.842700	-11.602000	22.100391	0.000465	20.744572
156.045420	-3.006400	3.842200	-11.551000	22.091540	0.000466	20.741875
157.046472	-2.987400	3.843100	-11.480000	22.081846	0.000465	20.756827
158.044804	-2.992500	3.842900	-11.499000	22.082818	0.000465	20.742626
159.055836	-2.974000	3.843100	-11.428000	22.139904	0.000465	20.745724
160.048882	-2.977100	3.843100	-11.439000	22.151719	0.000467	20.747122
161.044976	-3.009300	3.841000	-11.557000	22.155206	0.000468	20.761519
162.045539	-3.015400	3.840900	-11.581000	22.154389	0.000468	20.720870
163.053540	-2.975900	3.841800	-11.431000	22.178223	0.000467	20.734302
164.058544	-3.002700	3.840400	-11.531000	22.178198	0.000469	20.739019
165.047802	-3.011400	3.841600	-11.567000	22.156241	0.000469	20.737898
166.053815	-2.969200	3.842500	-11.408000	22.186003	0.000469	20.765801
167.050576	-3.004500	3.841100	-11.538000	22.203764	0.000468	20.744228
168.052637	-2.989500	3.841500	-11.483000	22.214776	0.000468	20.738183
169.049930	-2.981000	3.840900	-11.449000	22.240937	0.000469	20.734031
170.059594	-2.972700	3.840800	-11.417000	22.243011	0.000470	20.757919
171.059401	-2.977200	3.840300	-11.432000	22.241362	0.000471	20.727818
172.053334	-3.006800	3.840600	-11.547000	22.283974	0.000471	20.743933
173.048831	-2.990800	3.839200	-11.482000	22.265685	0.000472	20.747905
174.056664	-3.015200	3.840000	-11.577000	22.267874	0.000470	20.734449
175.054214	-3.014200	3.839100	-11.571000	22.282185	0.000471	20.745461
176.053660	-2.989600	3.839200	-11.477000	22.254344	0.000473	20.746033
177.051819	-3.013700	3.839100	-11.569000	22.273427	0.000471	20.747596
178.053393	-3.003500	3.838100	-11.527000	22.296784	0.000471	20.746802
179.054036	-3.001500	3.838500	-11.521000	22.293845	0.000472	20.735798
180.054090	-2.993000	3.838400	-11.487000	22.303961	0.000474	20.737867
181.068823	-3.005700	3.837900	-11.534000	22.301618	0.000471	20.739314
182.057269	-2.998000	3.839300	-11.510000	22.316280	0.000475	20.734555
183.052631	-3.011900	3.837400	-11.557000	22.309366	0.000474	20.734270
184.060474	-3.010000	3.836000	-11.545000	22.339296	0.000475	20.718246
185.071599	-3.012700	3.837000	-11.559000	22.332348	0.000472	20.725988
186.059539	-2.991700	3.837400	-11.479000	22.338079	0.000475	20.714182
187.063524	-3.016500	3.836600	-11.572000	22.347721	0.000474	20.732848
188.063968	-3.013700	3.836800	-11.562000	22.361036	0.000476	20.727214
189.067868	-2.992000	3.836300	-11.478000	22.372596	0.000475	20.718401
190.058412	-3.014800	3.835900	-11.563000	22.395945	0.000476	20.708590
191.056620	-2.970200	3.836000	-11.393000	22.389513	0.000476	20.742454
192.062522	-3.003200	3.836000	-11.518000	22.391161	0.000478	20.725138
193.058485	-2.997500	3.836400	-11.499000	22.386468	0.000478	20.725654
194.063471	-2.989800	3.834300	-11.463000	22.400557	0.000477	20.728383
195.063134	-2.998900	3.835700	-11.502000	22.417733	0.000478	20.719978
196.062283	-3.002300	3.834300	-11.511000	22.418722	0.000478	20.728081
197.062025	-2.998300	3.834300	-11.495000	22.420167	0.000479	20.724787
198.062374	-2.977400	3.835500	-11.419000	22.432053	0.000478	20.721042
199.062508	-3.010700	3.833000	-11.540000	22.455758	0.000479	20.730083
200.066244	-3.004000	3.834100	-11.517000	22.448680	0.000479	20.723944
201.062599	-3.004100	3.834600	-11.519000	22.462902	0.000479	20.729651
202.067547	-2.998500	3.834200	-11.495000	22.466444	0.000482	20.724664
203.064498	-2.985800	3.834000	-11.447000	22.474027	0.000481	20.727516
204.060600	-3.003700	3.832800	-11.511000	22.492933	0.000481	20.723216
205.062757	-3.012300	3.833400	-11.547000	22.513569	0.000481	20.714959
206.063948	-2.976400	3.834000	-11.411000	22.511791	0.000482	20.718394
207.064259	-2.987400	3.832500	-11.448000	22.507537	0.000481	20.712236
208.064230	-3.001800	3.832400	-11.504000	22.548049	0.000483	20.698755
209.062106	-2.986100	3.832300	-11.442000	22.534319	0.000483	20.718197
210.064714	-3.006400	3.830600	-11.515000	22.545976	0.000482	20.718966
211.062698	-2.983600	3.832300	-11.433000	22.555518	0.000482	20.723782
212.067856	-3.013600	3.831000	-11.544000	22.564741	0.000483	20.705517
213.062020	-2.988200	3.831900	-11.449000	22.556065	0.000482	20.713424
214.067818	-2.994000	3.830200	-11.466000	22.572800	0.000482	20.744885
215.065694	-2.996900	3.830900	-11.480000	22.551282	0.000483	20.736609
216.064719	-2.993300	3.830400	-11.464000	22.556115	0.000485	20.722482
217.067833	-2.998400	3.829600	-11.482000	22.591744	0.000483	20.711699
218.066566	-3.015400	3.829800	-11.547000	22.583019	0.000482	20.715289
219.064064	-3.006700	3.830500	-11.516000	22.593564	0.000484	20.708780
220.064761	-3.025600	3.828800	-11.584000	22.626800	0.000485	20.718362
221.069569	-2.995700	3.831100	-11.475000	22.643947	0.000486	20.707087
222.064157	-2.991800	3.829800	-11.457000	22.646209	0.000486	20.735907
223.063132	-3.002900	3.828700	-11.496000	22.633926	0.000486	20.707006
224.066616	-2.992800	3.830100	-11.462000	22.652363	0.000486	20.709353
225.065119	-3.001800	3.828900	-11.493000	22.632260	0.000486	20.708657
226.065628	-2.997600	3.828300	-11.475000	22.664327	0.000488	20.717070
227.068814	-3.015000	3.828300	-11.541000	22.670229	0.000487	20.694530
228.066311	-3.011700	3.826800	-11.524000	22.676481	0.000487	20.709802
229.064662	-2.995500	3.828200	-11.467000	22.685009	0.000489	20.711232
230.066546	-3.021400	3.828300	-11.565000	22.676709	0.000489	20.709082
231.066551	-3.010300	3.829300	-11.527000	22.688575	0.000488	20.692517
232.067415	-3.018500	3.827300	-11.551000	22.707338	0.000488	20.723167
233.067031	-2.990600	3.828400	-11.449000	22.705591	0.000490	20.679689
234.067369	-2.996600	3.827200	-11.467000	22.681025	0.000490	20.694438
235.082392	-2.998000	3.826700	-11.471000	22.688452	0.000490	20.723216
236.068401	-2.971800	3.827300	-11.373000	22.703225	0.000492	20.703873
237.072534	-3.001500	3.825900	-11.482000	22.736587	0.000491	20.719275
238.066844	-2.987100	3.826600	-11.430000	22.743663	0.000492	20.690799
239.072544	-3.000500	3.826800	-11.482000	22.740497	0.000493	20.698060
240.073861	-3.008500	3.826300	-11.511000	22.728036	0.000491	20.707863
241.067036	-2.990600	3.825900	-11.440000	22.723081	0.000494	20.701952
242.068410	-3.005900	3.826700	-11.502000	22.742937	0.000492	20.699556
243.069492	-3.005000	3.825200	-11.494000	22.769143	0.000493	20.702099
244.071431	-3.005800	3.824800	-11.495000	22.791112	0.000494	20.698503
245.069232	-2.990800	3.823900	-11.436000	22.784184	0.000493	20.707210
246.069353	-2.985400	3.825400	-11.419000	22.800979	0.000494	20.694635
247.068258	-2.994800	3.823300	-11.448000	22.808552	0.000496	20.695584
248.071984	-2.997300	3.824400	-11.462000	22.801126	0.000495	20.701896
249.068040	-2.983700	3.823800	-11.408000	22.812282	0.000496	20.678456
250.075818	-3.014200	3.822300	-11.520000	22.818264	0.000497	20.696304
251.075978	-3.000300	3.824300	-11.473000	22.794917	0.000495	20.687614
252.076180	-2.978600	3.823000	-11.387000	22.825560	0.000496	20.695078
253.077975	-3.034600	3.822100	-11.597000	22.842690	0.000494	20.686634
254.070810	-3.001300	3.822700	-11.471000	22.855150	0.000497	20.684891
255.076172	-2.992400	3.823900	-11.442000	22.854319	0.000494	20.683585
256.074104	-2.999300	3.823100	-11.466000	22.826818	0.000496	20.696339
257.073364	-3.004300	3.821200	-11.478000	22.832922	0.000497	20.700557
258.071361	-3.006400	3.821400	-11.488000	22.854498	0.000498	20.696093
259.078403	-3.007900	3.822600	-11.497000	22.867449	0.000500	20.695317
260.090338	-3.018100	3.819800	-11.528000	22.887874	0.000497	20.696813
261.079904	-3.008600	3.822000	-11.498000	22.874769	0.000498	20.701703
262.075882	-3.014200	3.820900	-11.516000	22.865826	0.000501	20.687052
263.082580	-2.995900	3.821800	-11.449000	22.913603	0.000496	20.683708
264.079498	-3.019000	3.820500	-11.533000	22.922742	0.000499	20.691442
265.077897	-2.985100	3.820300	-11.403000	22.930479	0.000500	20.696350
266.079161	-3.009600	3.820000	-11.496000	22.947019	0.000499	20.687789
267.079738	-3.000900	3.820800	-11.465000	22.965721	0.000500	20.701787
268.077703	-3.005900	3.819200	-11.479000	22.957750	0.000499	20.710870
269.078360	-2.999400	3.820600	-11.458000	22.957294	0.000501	20.709465
270.080213	-2.989200	3.821400	-11.422000	22.952057	0.000500	20.701373
271.078269	-3.010100	3.819800	-11.497000	22.978184	0.000501	20.676813
272.084767	-3.002900	3.819600	-11.469000	22.983439	0.000501	20.697252
