LabVIEW Measurement	
Writer_Version	2
Reader_Version	2
Separator	Tab
Decimal_Separator	.
Multi_Headings	No
X_Columns	One
Time_Pref	Absolute
Operator	admin
Description	Clolumns are: time, Current, Voltage, Power, Battery Temp, and Chamber Temp
Date	2024/06/17
Time	15:57:57.1458311080932617187
***End_of_Header***	
	
Channels	6						
Samples	1	1	1	1	1	1	
Date	2024/06/19	2024/06/19	2024/06/19	2024/06/19	2024/06/19	2024/06/19	
Time	02:46:15.3494272232055664062	02:46:15.355449676513671875	02:46:15.3615007400512695312	02:46:15.3330135345458984375	02:46:15.3330135345458984375	02:46:15.3330135345458984375	
X_Dimension	Time	Time	Time	Time	Time	Time	
X0	0.0000000000000000E+0	0.0000000000000000E+0	0.0000000000000000E+0	0.0000000000000000E+0	0.0000000000000000E+0	0.0000000000000000E+0	
Delta_X	1.000000	1.000000	1.000000	1.000000	1.000000	1.000000	
***End_of_Header***							
X_Value	Untitled	Untitled 1	Untitled 2	Untitled 3	Untitled 4	Untitled 5	Comment
0.000000	0.023762	4.120300	0.097900	20.952652	0.000169	21.072116
1.004475	-2.997000	4.021500	-12.052000	20.962819	0.000169	21.047203
2.000425	-2.990200	4.016100	-12.008000	20.942565	0.000168	21.041647
3.000607	-2.996600	4.011000	-12.018000	20.966795	0.000167	21.063030
4.003201	-2.995800	4.008700	-12.009000	20.965163	0.000167	21.057132
5.000318	-3.008800	4.005000	-12.050000	20.957841	0.000164	21.076831
6.001181	-3.007000	4.003000	-12.036000	20.942882	0.000164	21.062348
7.003234	-2.986200	4.000400	-11.945000	20.951994	0.000165	21.071932
8.001390	-2.984100	3.999300	-11.933000	20.945409	0.000164	21.070563
8.999941	-2.996900	3.996500	-11.976000	20.955365	0.000164	21.077199
10.003494	-2.997100	3.994300	-11.971000	20.975565	0.000164	21.068955
11.000863	-3.014300	3.992000	-12.032000	20.961449	0.000163	21.067640
12.001611	-3.033100	3.989600	-12.098000	20.946856	0.000161	21.082439
13.005473	-2.998800	3.988400	-11.959000	20.974721	0.000158	21.079014
14.001450	-3.000000	3.987500	-11.962000	20.984862	0.000160	21.076355
15.001368	-2.982400	3.986800	-11.890000	20.995633	0.000159	21.078593
16.006370	-2.975200	3.985000	-11.855000	20.979594	0.000159	21.083413
17.003296	-2.974600	3.983100	-11.847000	21.019837	0.000159	21.077671
18.002323	-2.998300	3.981600	-11.937000	20.993262	0.000159	21.080489
19.005949	-2.996100	3.982600	-11.932000	21.014594	0.000160	21.063896
20.003074	-2.992400	3.980100	-11.910000	21.003982	0.000158	21.069402
21.003748	-3.007800	3.978800	-11.967000	21.011804	0.000158	21.080067
22.004591	-2.995500	3.978500	-11.917000	21.016623	0.000157	21.082990
23.004318	-3.021300	3.976900	-12.015000	21.007406	0.000157	21.089891
24.010058	-3.003300	3.976300	-11.941000	21.006483	0.000159	21.104611
25.005171	-3.017100	3.975600	-11.992000	21.034190	0.000157	21.085387
26.004931	-2.993900	3.975400	-11.901000	21.026974	0.000156	21.107087
27.006409	-2.982200	3.974300	-11.852000	21.029659	0.000154	21.102662
28.007805	-3.014400	3.973500	-11.976000	21.049384	0.000153	21.094892
29.008121	-2.993000	3.973800	-11.892000	21.045513	0.000154	21.094814
30.009034	-3.024000	3.970700	-12.006000	21.029527	0.000154	21.092101
31.009686	-3.004900	3.971000	-11.932000	21.048673	0.000154	21.106980
32.008678	-3.017200	3.970000	-11.977000	21.062763	0.000154	21.092153
33.011214	-3.000900	3.969400	-11.911000	21.042509	0.000156	21.113615
34.015253	-2.992100	3.969900	-11.878000	21.068714	0.000154	21.092416
35.011743	-2.994600	3.967400	-11.881000	21.058284	0.000153	21.097155
36.012452	-2.986400	3.968100	-11.850000	21.071688	0.000155	21.121462
37.015170	-3.005600	3.966600	-11.921000	21.100870	0.000151	21.093759
38.012495	-3.023100	3.964300	-11.983000	21.086305	0.000151	21.096259
39.013582	-2.996100	3.965800	-11.881000	21.099025	0.000152	21.112772
40.019085	-3.016100	3.964700	-11.957000	21.091257	0.000151	21.096945
41.015871	-3.011400	3.963400	-11.934000	21.122226	0.000151	21.104213
42.016501	-2.980200	3.962500	-11.808000	21.088385	0.000149	21.110190
43.022985	-3.004400	3.962700	-11.905000	21.098867	0.000150	21.095075
44.018195	-3.000600	3.962700	-11.890000	21.088621	0.000150	21.096680
45.017318	-3.001700	3.961600	-11.891000	21.102921	0.000151	21.117616
46.023050	-2.988300	3.961900	-11.837000	21.112429	0.000150	21.098208
47.019259	-3.008900	3.961100	-11.917000	21.112928	0.000149	21.103922
48.020134	-3.000700	3.960900	-11.884000	21.109162	0.000151	21.103474
49.022681	-2.996800	3.960500	-11.867000	21.131864	0.000150	21.101052
50.019112	-2.993300	3.959300	-11.851000	21.134522	0.000149	21.104184
51.021426	-3.014600	3.960000	-11.936000	21.141212	0.000148	21.106608
52.018692	-2.988700	3.958000	-11.828000	21.153351	0.000147	21.109741
53.020170	-2.987200	3.958100	-11.823000	21.143844	0.000148	21.103079
54.020770	-3.003200	3.957700	-11.885000	21.142685	0.000148	21.082010
55.021936	-2.984700	3.956100	-11.807000	21.154326	0.000145	21.083697
56.021667	-2.999700	3.957900	-11.871000	21.150375	0.000146	21.106292
57.022166	-2.993900	3.956500	-11.845000	21.158013	0.000150	21.093547
58.022571	-2.969600	3.956500	-11.748000	21.146213	0.000145	21.107344
59.023735	-2.987100	3.955400	-11.814000	21.163621	0.000147	21.084460
60.023309	-2.989000	3.956000	-11.823000	21.153850	0.000146	21.096019
61.022213	-3.000200	3.955200	-11.865000	21.178841	0.000145	21.088778
62.022949	-2.981700	3.953200	-11.787000	21.177814	0.000145	21.092965
63.025239	-3.019700	3.952700	-11.936000	21.180712	0.000146	21.086856
64.023953	-2.995400	3.953500	-11.842000	21.187059	0.000142	21.097470
65.025050	-3.015200	3.951200	-11.912000	21.182791	0.000143	21.090359
66.025138	-3.026200	3.952100	-11.958000	21.194668	0.000144	21.079482
67.027267	-2.985900	3.951900	-11.799000	21.176208	0.000142	21.093729
68.026308	-2.998700	3.952700	-11.852000	21.199645	0.000144	21.095837
69.026836	-3.016100	3.950800	-11.915000	21.204700	0.000145	21.077191
70.026065	-3.002300	3.950900	-11.860000	21.197564	0.000144	21.066261
71.026078	-3.017100	3.950200	-11.918000	21.210993	0.000142	21.088225
72.025827	-2.990400	3.950700	-11.813000	21.216815	0.000145	21.076982
73.025653	-3.014300	3.950000	-11.906000	21.218815	0.000141	21.093677
74.025202	-3.016600	3.950100	-11.915000	21.205490	0.000143	21.081773
75.025909	-3.006100	3.948800	-11.870000	21.250967	0.000143	21.070845
76.027197	-2.992900	3.949100	-11.819000	21.261894	0.000143	21.058545
77.026237	-2.984300	3.948600	-11.783000	21.254915	0.000141	21.051092
78.026490	-2.977000	3.948500	-11.754000	21.245567	0.000141	21.066393
79.027743	-2.986400	3.948400	-11.791000	21.244726	0.000142	21.070765
80.027292	-2.998900	3.948400	-11.840000	21.240381	0.000140	21.060732
81.028085	-2.987500	3.946700	-11.790000	21.237747	0.000142	21.061416
82.027504	-3.002100	3.946400	-11.848000	21.237195	0.000140	21.053278
83.029716	-3.030700	3.945900	-11.958000	21.237168	0.000140	21.049934
84.026258	-2.980800	3.947400	-11.765000	21.266818	0.000141	21.056360
85.027314	-3.013600	3.945900	-11.891000	21.275271	0.000138	21.069081
86.028808	-2.985800	3.946000	-11.781000	21.276588	0.000141	21.081301
87.028998	-2.987100	3.945200	-11.784000	21.278692	0.000140	21.044534
88.028979	-3.002400	3.945700	-11.845000	21.260051	0.000139	21.079931
89.030453	-3.006600	3.944000	-11.858000	21.277588	0.000140	21.061917
90.028257	-2.990100	3.944600	-11.794000	21.281855	0.000140	21.038690
91.030253	-3.018300	3.945500	-11.908000	21.279668	0.000139	21.048828
92.031738	-3.021200	3.945300	-11.919000	21.291148	0.000140	21.053673
93.029049	-2.990000	3.943600	-11.790000	21.288989	0.000137	21.050092
94.031682	-3.008000	3.942900	-11.859000	21.313818	0.000139	21.073031
95.031034	-2.981900	3.943500	-11.758000	21.306076	0.000140	21.066235
96.030203	-2.983900	3.942600	-11.764000	21.312897	0.000140	21.051725
97.030127	-2.984400	3.942400	-11.765000	21.297334	0.000139	21.069816
98.031398	-3.010500	3.941400	-11.865000	21.309920	0.000138	21.054436
99.030892	-2.980000	3.942300	-11.747000	21.308893	0.000138	21.046772
100.029653	-3.008000	3.942200	-11.857000	21.322743	0.000137	21.048774
101.031465	-3.017100	3.941300	-11.890000	21.310947	0.000138	21.057360
102.030791	-3.009800	3.941900	-11.863000	21.331853	0.000139	21.037976
103.033307	-2.994500	3.940500	-11.800000	21.342122	0.000138	21.059625
104.031698	-2.984000	3.942000	-11.762000	21.331510	0.000139	21.051855
105.030997	-2.993500	3.940700	-11.796000	21.358813	0.000138	21.061625
106.031254	-2.974400	3.942200	-11.724000	21.354574	0.000138	21.045533
107.034680	-3.016400	3.940300	-11.885000	21.361025	0.000139	21.024965
108.033107	-3.007500	3.940500	-11.850000	21.355943	0.000139	21.068709
109.032728	-3.008600	3.939800	-11.853000	21.371688	0.000137	21.043216
110.034986	-2.954600	3.940600	-11.643000	21.370504	0.000138	21.052460
111.032208	-2.996400	3.939800	-11.804000	21.387091	0.000137	21.055305
112.033395	-2.995900	3.938700	-11.799000	21.380536	0.000136	21.035000
113.034797	-2.998100	3.938800	-11.809000	21.403966	0.000137	21.055119
114.033173	-3.015700	3.938100	-11.874000	21.386300	0.000136	21.037448
115.032877	-3.005700	3.938900	-11.838000	21.373373	0.000135	21.045376
116.036541	-3.006200	3.938800	-11.840000	21.382088	0.000138	21.066418
117.034180	-3.001700	3.938400	-11.822000	21.389275	0.000135	21.022884
118.034773	-3.003300	3.939400	-11.830000	21.389775	0.000138	21.040924
119.033105	-3.002600	3.937300	-11.822000	21.396648	0.000137	21.041162
120.035926	-2.966400	3.939100	-11.684000	21.393225	0.000137	21.022569
121.036107	-2.990800	3.937700	-11.777000	21.400649	0.000138	21.032839
122.037377	-2.978300	3.937700	-11.727000	21.420028	0.000138	21.019514
123.036033	-2.990700	3.936100	-11.771000	21.425344	0.000138	21.020566
124.035434	-2.995400	3.937800	-11.795000	21.448381	0.000136	21.034130
125.040503	-3.002200	3.937200	-11.820000	21.440193	0.000136	21.039686
126.037058	-3.017300	3.934500	-11.870000	21.448249	0.000136	21.033523
127.036980	-3.024400	3.935500	-11.902000	21.449117	0.000140	21.033917
128.040777	-2.964700	3.937200	-11.672000	21.449853	0.000138	21.032284
129.037125	-3.000900	3.936400	-11.812000	21.462122	0.000137	21.043609
130.039237	-2.992900	3.935100	-11.777000	21.455935	0.000137	21.031731
131.042161	-3.026300	3.934300	-11.906000	21.463359	0.000134	21.042477
132.040737	-3.030700	3.933200	-11.920000	21.483341	0.000134	21.029756
133.041159	-2.997600	3.935400	-11.796000	21.439294	0.000137	21.041157
134.042755	-2.995700	3.934900	-11.787000	21.459225	0.000139	21.016059
135.037736	-3.004900	3.934000	-11.820000	21.470833	0.000136	21.047582
136.039698	-3.013000	3.934500	-11.854000	21.483891	0.000139	21.020825
137.045391	-3.004500	3.934200	-11.820000	21.475968	0.000137	21.034231
138.039256	-3.000500	3.933700	-11.802000	21.478126	0.000138	21.034968
139.038622	-2.989800	3.933500	-11.760000	21.493525	0.000138	21.030463
140.041307	-3.027300	3.932200	-11.902000	21.478520	0.000138	21.016874
141.039081	-2.996400	3.932800	-11.783000	21.484680	0.000136	21.031570
142.039395	-3.019500	3.931600	-11.871000	21.484732	0.000137	21.042524
143.041903	-2.982600	3.932600	-11.729000	21.495947	0.000136	21.020086
144.039134	-3.019100	3.931800	-11.870000	21.519825	0.000140	21.025486
145.039482	-2.995700	3.933000	-11.782000	21.523825	0.000136	21.035176
146.041411	-2.988200	3.931800	-11.748000	21.532987	0.000135	21.021587
147.039226	-2.978600	3.931900	-11.710000	21.524274	0.000138	21.011922
148.040506	-2.984700	3.932800	-11.738000	21.518745	0.000137	21.028198
149.044482	-3.020000	3.931000	-11.871000	21.534248	0.000136	21.001516
150.039234	-3.011600	3.931100	-11.838000	21.523746	0.000138	21.029882
151.045398	-3.001700	3.930500	-11.798000	21.554045	0.000136	21.039336
152.042963	-3.002900	3.930500	-11.802000	21.538355	0.000137	21.017477
153.039958	-2.992500	3.931500	-11.763000	21.557916	0.000135	21.026617
154.042075	-3.000300	3.930300	-11.790000	21.546516	0.000138	21.031804
155.042065	-2.971800	3.930600	-11.680000	21.553098	0.000137	21.009946
156.039274	-2.984400	3.930900	-11.730000	21.538857	0.000139	21.019401
157.044596	-3.012300	3.929500	-11.836000	21.548675	0.000138	21.006468
158.042976	-2.984600	3.930900	-11.732000	21.554440	0.000137	21.024087
159.041002	-3.008900	3.929000	-11.821000	21.562864	0.000137	21.007864
160.046449	-2.987700	3.930000	-11.741000	21.559205	0.000138	21.003729
161.042981	-3.007700	3.929100	-11.816000	21.586082	0.000138	21.030619
162.041427	-2.998200	3.929000	-11.779000	21.585765	0.000138	21.015606
163.044213	-3.009300	3.930000	-11.826000	21.574340	0.000137	21.011761
164.042813	-3.004600	3.928400	-11.803000	21.579763	0.000137	21.025246
165.039435	-3.000100	3.928200	-11.784000	21.579606	0.000137	21.009444
166.047353	-3.003200	3.928200	-11.797000	21.588661	0.000138	20.995749
167.044670	-2.988900	3.927700	-11.739000	21.582420	0.000138	21.000408
168.042376	-3.001800	3.927900	-11.790000	21.605324	0.000136	21.017634
169.043911	-3.021000	3.926800	-11.861000	21.603007	0.000139	21.026220
170.044004	-2.979100	3.927100	-11.699000	21.620300	0.000137	21.012708
171.043514	-2.976800	3.928500	-11.692000	21.626512	0.000138	21.011338
172.043892	-2.992800	3.927300	-11.752000	21.611061	0.000137	20.999197
173.047315	-3.002100	3.927000	-11.788000	21.644859	0.000139	21.008836
174.045519	-2.997900	3.926600	-11.770000	21.623510	0.000139	20.998853
175.046066	-2.999300	3.927300	-11.778000	21.617115	0.000139	20.993876
176.047629	-3.010700	3.925200	-11.816000	21.638015	0.000138	21.010995
177.047194	-2.989100	3.925800	-11.734000	21.645147	0.000140	21.008176
178.047242	-2.988300	3.927500	-11.735000	21.628775	0.000138	20.999854
179.049519	-3.007000	3.925400	-11.802000	21.636987	0.000139	21.001434
180.049403	-2.994300	3.925800	-11.755000	21.626326	0.000140	20.993611
181.048929	-3.011800	3.924700	-11.820000	21.654464	0.000140	21.008017
182.050356	-3.009500	3.924700	-11.811000	21.653122	0.000138	21.010466
183.050862	-2.973700	3.925100	-11.672000	21.677864	0.000138	20.995401
184.049950	-2.996600	3.924700	-11.761000	21.666942	0.000140	20.983998
185.052390	-2.989700	3.924700	-11.733000	21.676812	0.000140	20.993874
186.051614	-2.980400	3.924800	-11.696000	21.675496	0.000139	21.014839
187.050670	-2.980300	3.926000	-11.700000	21.693579	0.000138	20.990740
188.053260	-2.991700	3.924000	-11.739000	21.672680	0.000140	21.016288
189.052663	-3.006300	3.924900	-11.798000	21.690921	0.000139	21.005148
190.050983	-2.997000	3.923500	-11.758000	21.672811	0.000138	20.995560
191.055639	-3.018800	3.924200	-11.846000	21.704029	0.000140	20.983182
192.053498	-3.000500	3.924500	-11.775000	21.705635	0.000138	20.993322
193.054305	-3.000900	3.923900	-11.774000	21.711242	0.000139	20.981391
194.055884	-2.991900	3.923000	-11.737000	21.702714	0.000138	21.006517
195.054352	-2.989500	3.922700	-11.725000	21.696897	0.000138	20.988371
196.055595	-3.000100	3.922700	-11.768000	21.731747	0.000141	20.989110
197.057111	-3.013500	3.922500	-11.820000	21.734141	0.000139	20.980128
198.055336	-3.000300	3.922200	-11.767000	21.714611	0.000141	20.996614
199.055171	-2.989400	3.923100	-11.727000	21.734061	0.000141	20.996641
200.056627	-2.984600	3.923600	-11.710000	21.736063	0.000141	20.986317
201.055644	-3.014700	3.921200	-11.820000	21.738379	0.000141	20.997168
202.056430	-3.020300	3.921200	-11.842000	21.723008	0.000144	20.994114
203.057921	-3.005800	3.921400	-11.786000	21.749591	0.000141	20.990373
204.055816	-3.005200	3.922200	-11.786000	21.744484	0.000141	21.010863
205.056993	-3.014400	3.920000	-11.816000	21.750169	0.000142	20.973411
206.058438	-3.019400	3.919100	-11.832000	21.769672	0.000142	20.976334
207.058455	-2.982300	3.921900	-11.696000	21.749774	0.000142	21.000512
208.057961	-3.001100	3.919900	-11.762000	21.763670	0.000144	20.977913
209.061881	-2.991700	3.921100	-11.731000	21.786726	0.000140	20.990081
210.058984	-2.978800	3.920500	-11.678000	21.774804	0.000141	20.995217
211.058967	-3.008100	3.920700	-11.792000	21.789278	0.000144	20.978886
212.061202	-2.986900	3.920900	-11.710000	21.786014	0.000142	20.992687
213.059478	-2.997600	3.919900	-11.750000	21.786305	0.000142	20.980652
214.059161	-3.004900	3.919800	-11.779000	21.786514	0.000143	20.966165
215.063919	-3.010500	3.919000	-11.798000	21.789093	0.000144	20.981072
216.059733	-3.014500	3.919900	-11.816000	21.794673	0.000143	20.985233
217.059281	-3.003300	3.918800	-11.768000	21.807991	0.000142	20.990028
218.063465	-3.020500	3.919100	-11.837000	21.807911	0.000141	20.977148
219.059682	-3.011000	3.919800	-11.802000	21.822332	0.000144	20.981623
220.060617	-3.004800	3.919700	-11.777000	21.830069	0.000143	20.984151
221.066824	-3.026400	3.918700	-11.859000	21.849624	0.000143	20.983336
222.062531	-2.978400	3.918400	-11.669000	21.845623	0.000141	20.981702
223.062800	-2.980500	3.918200	-11.677000	21.819673	0.000143	20.977541
224.064954	-3.002900	3.918200	-11.765000	21.826201	0.000142	20.967954
225.062885	-2.995700	3.919700	-11.741000	21.825384	0.000142	20.996530
226.064564	-3.001300	3.917100	-11.755000	21.825201	0.000143	20.971694
227.065816	-3.019100	3.916900	-11.825000	21.819752	0.000145	20.962449
228.064500	-3.004400	3.917700	-11.770000	21.835647	0.000144	20.966029
229.064987	-2.994000	3.916500	-11.725000	21.836122	0.000145	20.970771
230.066761	-2.992800	3.917300	-11.723000	21.840884	0.000144	20.965107
231.064002	-3.010300	3.917200	-11.791000	21.853096	0.000141	20.969269
232.065162	-2.991300	3.916400	-11.714000	21.856517	0.000145	20.982174
233.066065	-3.012400	3.917200	-11.799000	21.873728	0.000143	20.965265
234.065300	-2.986800	3.917200	-11.699000	21.867437	0.000143	20.965132
235.066277	-2.992400	3.917700	-11.723000	21.848543	0.000144	20.970876
236.067125	-2.981400	3.915000	-11.671000	21.841804	0.000146	20.975035
237.065070	-2.976300	3.917500	-11.659000	21.848279	0.000145	20.969663
238.067342	-3.010100	3.916000	-11.786000	21.877255	0.000145	20.945090
239.067883	-3.005700	3.916300	-11.771000	21.869358	0.000148	20.950936
240.066449	-2.990700	3.916300	-11.712000	21.878385	0.000145	20.955703
241.067186	-3.013400	3.914700	-11.796000	21.892254	0.000147	20.959153
242.068133	-3.013200	3.914000	-11.793000	21.888939	0.000147	20.968162
243.066414	-3.014700	3.915100	-11.802000	21.882149	0.000146	20.963736
244.067597	-2.989200	3.914700	-11.701000	21.892255	0.000148	20.965791
245.070027	-2.981200	3.915500	-11.672000	21.896938	0.000147	20.942033
246.068181	-2.984600	3.915600	-11.685000	21.889019	0.000146	20.936004
247.068048	-2.978500	3.915200	-11.661000	21.909126	0.000149	20.954705
248.067914	-2.988700	3.913700	-11.697000	21.898598	0.000147	20.961236
249.068130	-2.993100	3.914100	-11.715000	21.929703	0.000148	20.967240
250.067573	-2.998800	3.914800	-11.739000	21.935125	0.000148	20.963184
251.069747	-3.003400	3.914200	-11.755000	21.951099	0.000146	20.977276
252.069128	-2.997800	3.913500	-11.731000	21.907335	0.000148	20.951964
253.069685	-2.997100	3.913500	-11.728000	21.931625	0.000150	20.957311
254.071067	-3.012000	3.913300	-11.786000	21.933599	0.000148	20.957864
255.069650	-3.003300	3.912700	-11.750000	21.926099	0.000149	20.957943
256.072706	-2.998200	3.913000	-11.731000	21.933441	0.000150	20.944906
257.071165	-2.995000	3.913500	-11.720000	21.937046	0.000150	20.960840
258.071599	-3.004700	3.912000	-11.754000	21.936992	0.000150	20.963157
259.069586	-2.986600	3.913700	-11.688000	21.926597	0.000150	20.939953
260.071183	-3.003700	3.911600	-11.749000	21.963728	0.000151	20.940611
261.069761	-3.010800	3.912200	-11.778000	21.961202	0.000151	20.965580
262.071363	-3.008300	3.911800	-11.766000	21.955150	0.000149	20.948144
263.072114	-3.021400	3.912800	-11.822000	21.978465	0.000151	20.941138
264.070576	-3.007000	3.911100	-11.759000	21.959624	0.000150	20.944562
265.071327	-3.011800	3.910300	-11.776000	21.980649	0.000151	20.954228
266.072411	-2.994700	3.911100	-11.712000	21.998885	0.000152	20.926019
267.070195	-2.981500	3.910200	-11.658000	21.980412	0.000151	20.947353
268.071227	-3.010300	3.910500	-11.771000	21.996359	0.000152	20.944351
269.074018	-2.987300	3.912600	-11.687000	22.000201	0.000151	20.951989
270.072258	-3.008100	3.909500	-11.759000	22.030698	0.000151	20.947432
271.071570	-3.014600	3.911000	-11.789000	22.041092	0.000151	20.953569
272.075089	-3.009900	3.909700	-11.767000	22.003384	0.000155	20.931471
