LabVIEW Measurement	
Writer_Version	2
Reader_Version	2
Separator	Tab
Decimal_Separator	.
Multi_Headings	No
X_Columns	One
Time_Pref	Absolute
Operator	admin
Description	Clolumns are: time, Current, Voltage, Power, Battery Temp, and Chamber Temp
Date	2024/08/16
Time	13:59:35.9411449432373046875
***End_of_Header***	
	
Channels	6						
Samples	1	1	1	1	1	1	
Date	2024/09/20	2024/09/20	2024/09/20	2024/09/20	2024/09/20	2024/09/20	
Time	15:46:44.9432935714721679688	15:46:44.9623265266418457031	15:46:44.9683942794799804688	15:46:44.9255318641662597657	15:46:44.9255318641662597657	15:46:44.9255318641662597657	
X_Dimension	Time	Time	Time	Time	Time	Time	
X0	0.0000000000000000E+0	0.0000000000000000E+0	0.0000000000000000E+0	0.0000000000000000E+0	0.0000000000000000E+0	0.0000000000000000E+0	
Delta_X	1.000000	1.000000	1.000000	1.000000	1.000000	1.000000	
***End_of_Header***							
X_Value	Untitled	Untitled 1	Untitled 2	Untitled 3	Untitled 4	Untitled 5	Comment
0.000000	0.024424	4.101300	0.100190	20.748062	0.000406	20.668398
0.998376	-2.995800	3.936900	-11.793000	20.760317	0.000406	20.667850
1.999821	-2.993000	3.928400	-11.756000	20.746966	0.000405	20.672993
3.010812	-2.977900	3.924600	-11.686000	20.744718	0.000404	20.677383
4.002330	-2.993200	3.920700	-11.735000	20.740050	0.000404	20.657540
5.003783	-2.999500	3.915900	-11.746000	20.774134	0.000401	20.655113
6.010181	-2.982300	3.913800	-11.671000	20.736387	0.000401	20.683278
7.004859	-3.008600	3.909400	-11.760000	20.746067	0.000401	20.664980
8.006480	-2.979300	3.908200	-11.643000	20.759467	0.000401	20.673639
9.009387	-2.989100	3.906500	-11.676000	20.772891	0.000398	20.664302
10.004528	-2.993100	3.903500	-11.683000	20.764349	0.000398	20.679944
11.005223	-3.026200	3.900600	-11.802000	20.763734	0.000398	20.678855
12.009639	-3.007600	3.900500	-11.731000	20.774289	0.000398	20.670442
13.004897	-3.003700	3.899400	-11.712000	20.770643	0.000396	20.671538
14.005674	-2.984400	3.897800	-11.632000	20.782971	0.000394	20.658261
15.008749	-3.004800	3.895700	-11.705000	20.780723	0.000394	20.695371
16.005871	-2.992600	3.895700	-11.658000	20.804375	0.000394	20.682037
17.007221	-3.000100	3.894700	-11.683000	20.802984	0.000392	20.694398
18.012596	-2.985000	3.894200	-11.624000	20.792545	0.000393	20.682536
19.005906	-2.979700	3.892900	-11.599000	20.808937	0.000393	20.682807
20.007894	-3.011400	3.890700	-11.715000	20.824837	0.000390	20.674050
21.012254	-3.000000	3.890000	-11.669000	20.815255	0.000390	20.671580
22.006642	-3.015000	3.889000	-11.725000	20.831197	0.000390	20.669504
23.009744	-2.983800	3.889600	-11.605000	20.825932	0.000389	20.688423
24.013753	-2.996200	3.888300	-11.649000	20.830649	0.000389	20.681286
25.008122	-2.998000	3.886800	-11.652000	20.847662	0.000388	20.674116
26.007370	-3.006300	3.887100	-11.685000	20.845421	0.000387	20.685153
27.012875	-2.998300	3.886100	-11.650000	20.870469	0.000387	20.683175
28.010497	-3.008900	3.885900	-11.692000	20.854928	0.000389	20.701300
29.008642	-2.994100	3.885600	-11.633000	20.879411	0.000385	20.670779
30.014289	-3.002100	3.884900	-11.662000	20.879657	0.000385	20.704219
31.009310	-2.986700	3.883400	-11.598000	20.903812	0.000385	20.698978
32.010082	-3.011400	3.883400	-11.693000	20.896602	0.000385	20.661418
33.018718	-2.990800	3.881700	-11.608000	20.900918	0.000384	20.697032
34.011587	-3.006200	3.882000	-11.670000	20.913147	0.000384	20.682708
35.011043	-3.011000	3.882100	-11.687000	20.899847	0.000384	20.685055
36.014441	-3.007600	3.881600	-11.673000	20.921803	0.000383	20.693738
37.012078	-2.995800	3.879300	-11.621000	20.923152	0.000381	20.671377
38.011055	-2.997600	3.881200	-11.633000	20.923338	0.000383	20.693850
39.015459	-3.009200	3.879000	-11.671000	20.928694	0.000382	20.705845
40.011580	-3.001500	3.879500	-11.643000	20.947085	0.000381	20.681089
41.009370	-2.992300	3.879000	-11.606000	20.951556	0.000380	20.699786
42.011623	-2.999000	3.878100	-11.629000	20.961789	0.000382	20.701487
43.009628	-2.991400	3.878300	-11.600000	20.960416	0.000380	20.692052
44.010994	-3.004500	3.877700	-11.649000	20.963759	0.000380	20.686386
45.023988	-2.989000	3.878100	-11.591000	20.971949	0.000380	20.686042
46.011435	-2.985500	3.877600	-11.575000	20.976331	0.000378	20.670983
47.013750	-2.996500	3.877300	-11.617000	21.001987	0.000379	20.705656
48.015414	-2.973800	3.877300	-11.530000	20.978561	0.000379	20.695975
49.011503	-2.988800	3.876400	-11.584000	20.993781	0.000377	20.689386
50.013861	-2.997700	3.876100	-11.619000	21.032008	0.000378	20.694430
51.012851	-3.021400	3.874400	-11.705000	21.011876	0.000378	20.684725
52.012046	-3.018300	3.874500	-11.693000	21.028690	0.000379	20.697749
53.014322	-2.989700	3.875100	-11.584000	21.046679	0.000377	20.698199
54.015977	-2.976200	3.875900	-11.534000	21.021733	0.000376	20.690317
55.014801	-3.004800	3.874400	-11.641000	21.045289	0.000378	20.698231
56.012356	-2.999000	3.874100	-11.617000	21.059689	0.000377	20.692245
57.018049	-3.011000	3.874000	-11.664000	21.051353	0.000376	20.715203
58.013518	-3.020600	3.872900	-11.698000	21.061463	0.000377	20.699710
59.014723	-2.994800	3.873900	-11.601000	21.064029	0.000375	20.686629
60.017583	-3.014200	3.872600	-11.672000	21.083848	0.000375	20.687012
61.013418	-3.012100	3.871800	-11.662000	21.090435	0.000374	20.696921
62.018662	-3.015400	3.872300	-11.674000	21.085899	0.000376	20.686692
63.021012	-3.001400	3.872000	-11.621000	21.091292	0.000378	20.711530
64.016973	-2.981000	3.872600	-11.542000	21.091440	0.000374	20.694606
65.018994	-2.995300	3.871200	-11.594000	21.101198	0.000375	20.690142
66.021714	-3.021500	3.870800	-11.694000	21.112655	0.000375	20.708242
67.017448	-2.993400	3.870900	-11.585000	21.128649	0.000375	20.696264
68.021787	-2.980300	3.871900	-11.538000	21.147617	0.000375	20.682046
69.018423	-2.989000	3.870600	-11.569000	21.142821	0.000377	20.711389
70.016813	-2.991900	3.870600	-11.580000	21.144692	0.000373	20.723694
71.034995	-3.000100	3.870400	-11.611000	21.171317	0.000373	20.699117
72.018410	-2.996100	3.871200	-11.597000	21.160791	0.000374	20.701389
73.018409	-2.997100	3.869500	-11.595000	21.184098	0.000373	20.694357
74.017406	-2.977900	3.870400	-11.525000	21.171921	0.000373	20.706834
75.023119	-3.014600	3.869800	-11.665000	21.163355	0.000373	20.700635
76.018291	-2.995700	3.869200	-11.590000	21.185773	0.000374	20.709784
77.019632	-3.006100	3.870000	-11.632000	21.173653	0.000372	20.691969
78.025420	-3.008200	3.868300	-11.636000	21.203261	0.000372	20.694561
79.023070	-3.006500	3.868500	-11.629000	21.219507	0.000372	20.684733
80.021310	-2.995400	3.868700	-11.587000	21.212078	0.000371	20.711443
81.026498	-2.999200	3.868100	-11.601000	21.249669	0.000374	20.702581
82.022027	-3.004300	3.867300	-11.618000	21.231837	0.000373	20.704657
83.021697	-3.019200	3.866600	-11.672000	21.233635	0.000373	20.719732
84.030058	-2.975300	3.867800	-11.507000	21.250993	0.000373	20.714811
85.023818	-2.997100	3.867100	-11.589000	21.264942	0.000374	20.720231
86.026947	-2.990700	3.866500	-11.563000	21.257857	0.000371	20.697969
87.027146	-2.982400	3.867700	-11.533000	21.266985	0.000374	20.721801
88.024390	-2.985800	3.867400	-11.546000	21.260823	0.000373	20.699988
89.026797	-3.027100	3.864900	-11.699000	21.276766	0.000372	20.723526
90.033865	-2.997900	3.866800	-11.591000	21.280410	0.000372	20.713895
91.027303	-3.014700	3.865800	-11.653000	21.287414	0.000373	20.720902
92.025098	-3.016400	3.865400	-11.659000	21.282102	0.000371	20.701836
93.029255	-2.985700	3.865800	-11.541000	21.302686	0.000372	20.702040
94.026834	-3.005400	3.865500	-11.617000	21.301159	0.000372	20.726118
95.029903	-2.996300	3.864700	-11.579000	21.329946	0.000375	20.717934
96.029314	-2.993900	3.864500	-11.568000	21.333436	0.000372	20.704829
97.029313	-3.009900	3.864600	-11.631000	21.336581	0.000372	20.729788
98.030311	-2.994000	3.864300	-11.570000	21.347597	0.000372	20.710937
99.034314	-3.014200	3.864300	-11.647000	21.354566	0.000373	20.707477
100.029313	-3.010800	3.864200	-11.633000	21.347555	0.000374	20.719430
101.030951	-3.005800	3.863600	-11.612000	21.362844	0.000374	20.715759
102.031357	-2.997100	3.864900	-11.583000	21.371767	0.000375	20.728956
103.029551	-2.994300	3.863000	-11.566000	21.377756	0.000372	20.707919
104.031074	-3.006000	3.863800	-11.614000	21.385616	0.000373	20.725742
105.033661	-2.986000	3.865200	-11.541000	21.379873	0.000375	20.721418
106.030616	-3.002500	3.863300	-11.599000	21.392097	0.000375	20.734597
107.028494	-2.998900	3.863200	-11.585000	21.388951	0.000373	20.717224
108.034453	-3.015600	3.862800	-11.647000	21.401371	0.000376	20.721590
109.029967	-3.004700	3.862100	-11.604000	21.425965	0.000373	20.731024
110.031306	-3.005300	3.862300	-11.606000	21.427337	0.000374	20.715801
111.032632	-3.015100	3.861600	-11.643000	21.434537	0.000373	20.717789
112.039488	-3.017600	3.861500	-11.652000	21.438181	0.000375	20.732341
113.031488	-3.003500	3.862700	-11.601000	21.457364	0.000376	20.723560
114.032489	-2.995700	3.862300	-11.568000	21.453141	0.000373	20.730715
115.030490	-3.022100	3.860500	-11.666000	21.455437	0.000376	20.730641
116.053491	-3.015300	3.860600	-11.640000	21.462096	0.000376	20.722131
117.034491	-3.010300	3.860500	-11.620000	21.463019	0.000375	20.758618
118.033489	-3.002200	3.861400	-11.592000	21.493470	0.000374	20.751628
119.036489	-3.015300	3.861000	-11.641000	21.487464	0.000374	20.738506
120.032488	-3.002800	3.859900	-11.590000	21.506451	0.000375	20.735218
121.032488	-3.011100	3.860200	-11.622000	21.502228	0.000375	20.749011
122.062488	-2.968900	3.861300	-11.463000	21.511066	0.000375	20.752166
123.036488	-2.985700	3.860600	-11.526000	21.511811	0.000377	20.731572
124.036487	-3.009200	3.858700	-11.611000	21.503632	0.000375	20.741881
125.046489	-3.005000	3.859200	-11.596000	21.532292	0.000375	20.733100
126.036489	-2.988300	3.860300	-11.535000	21.532088	0.000376	20.742380
127.035491	-2.982600	3.860200	-11.513000	21.555756	0.000375	20.736191
128.036493	-3.001100	3.860000	-11.583000	21.560477	0.000374	20.729061
129.033491	-3.018200	3.859600	-11.648000	21.560133	0.000375	20.738201
130.036489	-2.984900	3.860200	-11.521000	21.538589	0.000376	20.730393
131.033491	-3.003500	3.858400	-11.588000	21.575328	0.000375	20.736336
132.057490	-3.017500	3.857600	-11.638000	21.567223	0.000377	20.743399
133.049489	-3.009200	3.857800	-11.607000	21.589027	0.000377	20.736294
134.041490	-3.055800	3.857500	-11.787000	21.584134	0.000376	20.744200
135.093488	-2.982200	3.857700	-11.502000	21.589599	0.000376	20.744453
136.037489	-3.026800	3.857000	-11.673000	21.587907	0.000377	20.724741
137.037488	-3.001500	3.857100	-11.576000	21.608289	0.000376	20.729965
138.049491	-3.005100	3.857500	-11.592000	21.617218	0.000376	20.745539
139.032489	-2.991800	3.857000	-11.539000	21.601466	0.000377	20.761071
140.046489	-2.980500	3.858300	-11.498000	21.635360	0.000378	20.762272
141.035489	-3.004900	3.857300	-11.590000	21.646289	0.000378	20.750450
142.037489	-3.004000	3.855800	-11.582000	21.641681	0.000378	20.739674
143.034493	-2.984400	3.858100	-11.513000	21.644696	0.000378	20.744113
144.040491	-2.991300	3.856100	-11.534000	21.662511	0.000377	20.753882
145.035452	-3.009300	3.855900	-11.602000	21.657381	0.000380	20.754911
146.035786	-2.986500	3.857300	-11.519000	21.660550	0.000380	20.762350
147.039785	-2.998200	3.855000	-11.557000	21.688111	0.000380	20.750577
148.039785	-2.984200	3.855900	-11.506000	21.687048	0.000380	20.737659
149.034785	-2.976300	3.857100	-11.479000	21.689122	0.000381	20.749692
150.040786	-2.982800	3.856100	-11.500000	21.702150	0.000379	20.739496
151.035935	-3.015600	3.854200	-11.622000	21.683198	0.000380	20.747083
152.055717	-2.996800	3.854600	-11.551000	21.697461	0.000380	20.751400
153.038718	-2.990700	3.855100	-11.528000	21.695710	0.000382	20.753441
154.041716	-3.006500	3.854500	-11.588000	21.734315	0.000381	20.755566
155.039716	-3.005700	3.854200	-11.584000	21.731332	0.000381	20.759219
156.039718	-3.017000	3.853000	-11.623000	21.731104	0.000381	20.757568
157.041717	-3.002100	3.854300	-11.570000	21.731560	0.000383	20.767035
158.048715	-3.011700	3.853600	-11.605000	21.749072	0.000381	20.759905
159.038716	-3.002800	3.853200	-11.569000	21.753761	0.000383	20.762701
160.052719	-3.006600	3.853500	-11.584000	21.756365	0.000382	20.743021
161.055719	-3.016400	3.852900	-11.620000	21.766795	0.000382	20.755357
162.039714	-3.009000	3.853800	-11.595000	21.759696	0.000383	20.741613
163.038934	-3.008100	3.853300	-11.590000	21.779422	0.000382	20.768469
164.038989	-2.992000	3.853100	-11.527000	21.784184	0.000382	20.766597
165.044990	-2.993800	3.851900	-11.530000	21.797154	0.000386	20.772466
166.053992	-3.009700	3.852600	-11.594000	21.801418	0.000384	20.758715
167.042302	-3.011600	3.851500	-11.599000	21.802225	0.000384	20.766162
168.054682	-3.005400	3.851200	-11.574000	21.815522	0.000384	20.765720
169.046070	-3.020700	3.851800	-11.634000	21.823821	0.000385	20.781613
170.044678	-3.008400	3.851400	-11.585000	21.834650	0.000386	20.766373
171.045677	-3.021600	3.851100	-11.636000	21.830762	0.000386	20.772439
172.049677	-3.020700	3.851100	-11.632000	21.834756	0.000386	20.770746
173.046679	-3.028000	3.850000	-11.657000	21.830622	0.000386	20.760919
174.050680	-3.016900	3.850300	-11.615000	21.854635	0.000387	20.767410
175.048677	-2.994500	3.850500	-11.529000	21.850894	0.000387	20.765562
176.044679	-3.008800	3.850300	-11.584000	21.864713	0.000389	20.792196
177.048677	-3.028200	3.849700	-11.657000	21.875159	0.000386	20.764720
178.043678	-3.003900	3.850700	-11.566000	21.883588	0.000388	20.775053
179.055678	-3.027500	3.849100	-11.652000	21.903483	0.000388	20.777898
180.051677	-2.997000	3.850700	-11.539000	21.903034	0.000387	20.781716
181.047681	-2.971000	3.850900	-11.439000	21.885767	0.000389	20.772493
182.047676	-3.014000	3.849300	-11.601000	21.911617	0.000389	20.784617
183.046677	-3.018900	3.848300	-11.617000	21.894343	0.000391	20.784396
184.052677	-2.994200	3.849700	-11.525000	21.904512	0.000391	20.775134
185.072715	-3.009600	3.849600	-11.585000	21.920853	0.000391	20.774896
186.047678	-3.010200	3.847700	-11.582000	21.931446	0.000391	20.788818
187.045680	-2.983500	3.848400	-11.481000	21.951439	0.000390	20.774692
188.050678	-2.989100	3.849400	-11.505000	21.924390	0.000392	20.777488
189.064677	-2.991400	3.848600	-11.511000	21.914842	0.000390	20.775517
190.049678	-2.999600	3.847600	-11.540000	21.952688	0.000391	20.777365
191.048677	-2.984000	3.848400	-11.483000	21.967593	0.000393	20.782802
192.052679	-3.010000	3.848000	-11.582000	21.964677	0.000392	20.784150
193.082678	-3.005100	3.848000	-11.563000	21.989561	0.000392	20.801473
194.052679	-2.998000	3.848000	-11.535000	22.007135	0.000392	20.782082
195.070678	-3.003900	3.846800	-11.555000	21.980863	0.000394	20.791818
196.052678	-2.988400	3.848200	-11.498000	21.992182	0.000392	20.787502
197.056676	-3.019800	3.846700	-11.615000	22.000308	0.000394	20.788524
198.054677	-2.984300	3.849200	-11.486000	22.000953	0.000392	20.774945
199.051678	-2.998200	3.847000	-11.533000	22.010777	0.000394	20.797107
200.060680	-2.989500	3.846500	-11.498000	22.008858	0.000392	20.805618
201.051679	-3.002400	3.845900	-11.546000	22.014542	0.000396	20.789022
202.061678	-2.991600	3.846900	-11.508000	22.019612	0.000394	20.789831
203.049676	-3.000300	3.846700	-11.541000	22.039073	0.000394	20.801726
204.053676	-2.973800	3.847400	-11.440000	22.047199	0.000394	20.793739
205.052679	-3.003800	3.845000	-11.549000	22.034786	0.000396	20.808340
206.055676	-2.976700	3.846000	-11.447000	22.032589	0.000397	20.784330
207.064678	-2.989100	3.845800	-11.494000	22.087342	0.000396	20.783192
208.052675	-3.017400	3.843600	-11.597000	22.070863	0.000396	20.803679
209.076707	-3.020200	3.844800	-11.611000	22.074252	0.000398	20.781942
210.051679	-3.007000	3.845000	-11.561000	22.071018	0.000398	20.808101
211.050679	-2.996900	3.844400	-11.519000	22.103347	0.000399	20.808698
212.069677	-3.010300	3.843200	-11.568000	22.097165	0.000398	20.809622
213.051676	-2.985400	3.845100	-11.478000	22.082189	0.000399	20.804112
214.053678	-3.004900	3.845000	-11.553000	22.109438	0.000400	20.796304
215.053678	-3.010200	3.844200	-11.571000	22.107771	0.000401	20.799377
216.056677	-2.989500	3.843300	-11.489000	22.138752	0.000399	20.792936
217.081678	-3.000400	3.843000	-11.530000	22.139177	0.000399	20.816120
218.052678	-3.001500	3.844400	-11.538000	22.140327	0.000399	20.803522
219.056678	-2.987500	3.843700	-11.482000	22.152624	0.000401	20.814410
220.062677	-3.020200	3.842600	-11.604000	22.147863	0.000401	20.792101
221.059678	-3.015300	3.843000	-11.587000	22.156143	0.000401	20.808450
222.077675	-3.004800	3.842500	-11.545000	22.150663	0.000401	20.803913
223.055677	-3.008300	3.842700	-11.560000	22.151863	0.000402	20.832140
224.057678	-3.010800	3.842000	-11.566000	22.173558	0.000402	20.803127
225.061684	-3.008800	3.841700	-11.558000	22.187186	0.000403	20.813452
226.072677	-3.002500	3.843300	-11.538000	22.171312	0.000404	20.822689
227.062678	-3.002000	3.841500	-11.532000	22.187267	0.000404	20.800731
228.076685	-3.001800	3.840300	-11.527000	22.169825	0.000403	20.812666
229.067677	-3.013000	3.840700	-11.571000	22.196721	0.000404	20.814464
230.057677	-3.016800	3.841100	-11.586000	22.207768	0.000404	20.830266
231.074679	-2.989700	3.841200	-11.483000	22.202794	0.000403	20.820545
232.070679	-3.014100	3.840500	-11.575000	22.228490	0.000406	20.801702
233.065676	-2.982300	3.841500	-11.456000	22.209898	0.000407	20.815803
234.080677	-3.027600	3.839300	-11.624000	22.226088	0.000405	20.828220
235.072687	-2.990400	3.840700	-11.484000	22.240263	0.000407	20.817756
236.067677	-3.003000	3.840000	-11.531000	22.250671	0.000407	20.810635
237.074678	-2.997700	3.839700	-11.509000	22.239681	0.000406	20.807691
238.091711	-2.981700	3.840000	-11.448000	22.258697	0.000407	20.825308
239.061681	-2.992700	3.839900	-11.491000	22.252801	0.000408	20.805181
240.065678	-2.981600	3.838800	-11.445000	22.265015	0.000408	20.825471
241.065679	-2.986200	3.840200	-11.466000	22.259912	0.000410	20.821783
242.064678	-3.008100	3.840200	-11.550000	22.274771	0.000407	20.812006
243.063678	-2.980200	3.839200	-11.440000	22.274778	0.000410	20.815332
244.063678	-2.994600	3.838300	-11.494000	22.297336	0.000409	20.820376
245.063678	-2.998000	3.839200	-11.509000	22.321266	0.000410	20.830586
246.073678	-3.014100	3.837500	-11.565000	22.301009	0.000410	20.829743
247.076678	-3.002100	3.837500	-11.520000	22.320628	0.000411	20.819990
248.064678	-2.983100	3.839000	-11.450000	22.304013	0.000411	20.824690
249.069678	-3.014400	3.838300	-11.569000	22.324252	0.000412	20.824093
250.074677	-2.978800	3.838700	-11.434000	22.342221	0.000413	20.829284
251.066678	-3.007000	3.837100	-11.538000	22.327525	0.000410	20.815043
252.068677	-2.993600	3.836900	-11.485000	22.327932	0.000411	20.811183
253.066678	-2.993100	3.837000	-11.484000	22.342938	0.000413	20.812458
254.066678	-3.008000	3.836200	-11.538000	22.330054	0.000413	20.805248
255.088681	-2.982700	3.836500	-11.442000	22.365796	0.000412	20.802157
256.073677	-3.007200	3.835600	-11.533000	22.380278	0.000413	20.807176
257.071678	-3.002100	3.835300	-11.513000	22.377339	0.000416	20.784793
258.070679	-3.019200	3.834900	-11.577000	22.379714	0.000414	20.818465
259.069678	-2.993100	3.834700	-11.477000	22.376547	0.000415	20.807233
260.079681	-2.988300	3.834900	-11.459000	22.379363	0.000414	20.795829
261.071678	-2.994300	3.836600	-11.487000	22.370676	0.000417	20.813208
262.069679	-2.995100	3.835100	-11.485000	22.402499	0.000416	20.809987
263.072678	-3.006000	3.834500	-11.525000	22.388098	0.000416	20.814058
264.079677	-2.994700	3.834500	-11.482000	22.389322	0.000416	20.772136
265.071678	-3.018300	3.833800	-11.571000	22.399575	0.000416	20.798998
266.091680	-3.018600	3.835000	-11.576000	22.418286	0.000416	20.795925
267.074677	-3.017400	3.833700	-11.566000	22.401917	0.000419	20.773843
268.071678	-2.999500	3.835900	-11.505000	22.420815	0.000419	20.787078
269.075677	-3.029600	3.833200	-11.613000	22.438155	0.000419	20.799701
270.073678	-2.981000	3.835500	-11.433000	22.431232	0.000419	20.787078
271.073198	-2.983900	3.834200	-11.440000	22.434244	0.000419	20.773974
272.074191	-2.981700	3.833900	-11.431000	22.433607	0.000419	20.774284
