LabVIEW Measurement	
Writer_Version	2
Reader_Version	2
Separator	Tab
Decimal_Separator	.
Multi_Headings	No
X_Columns	One
Time_Pref	Absolute
Operator	admin
Description	Clolumns are: time, Current, Voltage, Power, Battery Temp, and Chamber Temp
Date	2024/08/16
Time	13:07:17.8513970375061035156
***End_of_Header***	
	
Channels	6						
Samples	1	1	1	1	1	1	
Date	2024/08/29	2024/08/29	2024/08/29	2024/08/29	2024/08/29	2024/08/29	
Time	00:24:53.9795928001403808594	00:24:53.9886274337768554688	00:24:53.9956679344177246094	00:24:53.9591960906982421875	00:24:53.9591960906982421875	00:24:53.9591960906982421875	
X_Dimension	Time	Time	Time	Time	Time	Time	
X0	0.0000000000000000E+0	0.0000000000000000E+0	0.0000000000000000E+0	0.0000000000000000E+0	0.0000000000000000E+0	0.0000000000000000E+0	
Delta_X	1.000000	1.000000	1.000000	1.000000	1.000000	1.000000	
***End_of_Header***							
X_Value	Untitled	Untitled 1	Untitled 2	Untitled 3	Untitled 4	Untitled 5	Comment
0.000000	0.024251	4.084500	0.099085	20.947448	0.000474	20.954085
0.997052	-2.989100	3.925500	-11.732000	20.951714	0.000471	20.943655
2.000066	-2.989900	3.919200	-11.717000	20.946389	0.000469	20.962034
2.997899	-2.994200	3.914200	-11.719000	20.945992	0.000472	20.958793
3.998502	-2.976000	3.912600	-11.643000	20.926762	0.000471	20.952837
4.997357	-2.995700	3.909500	-11.711000	20.930236	0.000471	20.923599
5.999381	-3.004700	3.906300	-11.736000	20.943952	0.000470	20.942056
7.001153	-3.010000	3.905200	-11.754000	20.947453	0.000469	20.938445
8.007043	-2.980000	3.902700	-11.629000	20.968286	0.000469	20.940789
8.999166	-2.981500	3.900900	-11.629000	20.981073	0.000468	20.926552
10.007766	-3.008800	3.898700	-11.729000	20.974598	0.000467	20.931930
11.003110	-2.991800	3.897300	-11.659000	20.980709	0.000467	20.940886
12.002909	-3.002800	3.897100	-11.701000	20.996639	0.000468	20.930742
13.003312	-3.017500	3.894300	-11.751000	20.994548	0.000463	20.926279
14.003268	-3.004800	3.893500	-11.699000	20.990788	0.000466	20.927260
15.000897	-3.005600	3.892700	-11.699000	21.022433	0.000462	20.936150
16.002379	-3.020500	3.891700	-11.754000	21.014322	0.000463	20.942736
17.007083	-3.009400	3.889400	-11.704000	21.019348	0.000463	20.947288
18.001381	-2.998600	3.890000	-11.664000	21.042687	0.000463	20.927961
19.003782	-3.012400	3.889000	-11.714000	21.040096	0.000461	20.924421
20.005230	-2.992600	3.887800	-11.634000	21.050707	0.000461	20.934558
21.005052	-3.006600	3.887200	-11.686000	21.048544	0.000461	20.932396
22.005071	-2.992900	3.885700	-11.628000	21.066746	0.000461	20.942066
23.005635	-2.984700	3.887200	-11.601000	21.088741	0.000459	20.917127
24.004454	-3.010200	3.884300	-11.691000	21.065850	0.000458	20.935955
25.000639	-2.989200	3.886000	-11.615000	21.092123	0.000460	20.915295
26.011588	-2.971600	3.884300	-11.541000	21.095708	0.000460	20.932155
27.006172	-2.979200	3.884500	-11.571000	21.093019	0.000460	20.924251
28.002940	-3.004000	3.882700	-11.663000	21.104577	0.000459	20.925381
29.004835	-3.008200	3.883100	-11.679000	21.110506	0.000458	20.923725
30.009234	-3.010300	3.880900	-11.681000	21.124201	0.000458	20.906131
31.008006	-3.003500	3.881000	-11.656000	21.130915	0.000458	20.915217
32.007461	-3.015200	3.880100	-11.699000	21.108947	0.000457	20.924537
33.010374	-3.012600	3.880000	-11.688000	21.136967	0.000456	20.926011
34.006764	-3.000400	3.881700	-11.645000	21.151817	0.000457	20.924270
35.010862	-3.014600	3.879200	-11.692000	21.156245	0.000458	20.924907
36.008149	-2.999400	3.879100	-11.633000	21.160660	0.000458	20.931219
37.003726	-3.018300	3.878400	-11.705000	21.166400	0.000458	20.933641
38.007611	-3.007500	3.879400	-11.667000	21.183912	0.000455	20.928874
39.007673	-2.998700	3.878000	-11.628000	21.202553	0.000456	20.923341
40.008002	-3.003500	3.877200	-11.644000	21.189074	0.000457	20.906540
41.007487	-2.999900	3.877200	-11.630000	21.200580	0.000457	20.899084
42.008479	-3.001000	3.877300	-11.634000	21.206449	0.000456	20.903058
43.009993	-2.992000	3.876400	-11.597000	21.219902	0.000455	20.922678
44.013883	-3.006500	3.876800	-11.655000	21.223876	0.000455	20.902473
45.010505	-3.017700	3.876000	-11.696000	21.239621	0.000455	20.904474
46.009471	-3.003000	3.876600	-11.641000	21.229109	0.000455	20.914345
47.008308	-2.996400	3.874900	-11.610000	21.260787	0.000455	20.906682
48.006902	-2.998300	3.875200	-11.618000	21.271551	0.000454	20.920768
49.008112	-2.979800	3.875400	-11.547000	21.276921	0.000453	20.913812
50.008196	-2.990000	3.874500	-11.584000	21.273791	0.000455	20.919216
51.009486	-2.975300	3.875000	-11.529000	21.298456	0.000454	20.911175
52.007340	-3.000000	3.873700	-11.620000	21.280901	0.000454	20.896459
53.007746	-3.003400	3.873900	-11.633000	21.299689	0.000453	20.902927
54.008171	-3.006800	3.872800	-11.644000	21.316355	0.000453	20.902531
55.006602	-2.986700	3.873600	-11.568000	21.326723	0.000454	20.918591
56.009573	-3.011500	3.872300	-11.661000	21.314530	0.000455	20.900231
57.013686	-3.000300	3.873400	-11.621000	21.340682	0.000454	20.889885
58.011157	-3.008600	3.872200	-11.649000	21.320640	0.000451	20.918669
59.012410	-2.979500	3.872700	-11.538000	21.349231	0.000452	20.910291
60.016685	-2.991200	3.871300	-11.579000	21.365293	0.000454	20.903128
61.011986	-2.994500	3.872600	-11.595000	21.352068	0.000453	20.889897
62.009978	-3.004000	3.872900	-11.633000	21.362280	0.000454	20.887786
63.015931	-2.987700	3.870900	-11.563000	21.382892	0.000454	20.894184
64.010795	-2.978700	3.871800	-11.532000	21.388683	0.000454	20.881960
65.014684	-3.001200	3.870700	-11.616000	21.388812	0.000453	20.899632
66.013653	-3.003200	3.871400	-11.626000	21.413878	0.000456	20.913804
67.018513	-2.990400	3.871400	-11.576000	21.414293	0.000453	20.891936
68.018035	-2.997100	3.869100	-11.594000	21.425640	0.000452	20.897599
69.015233	-3.015200	3.870900	-11.671000	21.445518	0.000456	20.895677
70.012815	-2.986100	3.870400	-11.557000	21.432190	0.000455	20.902256
71.016218	-2.989700	3.868400	-11.565000	21.442375	0.000454	20.894429
72.016138	-3.001700	3.870300	-11.617000	21.468536	0.000454	20.913491
73.023087	-3.000400	3.869600	-11.609000	21.482837	0.000455	20.895085
74.017758	-2.980100	3.870900	-11.534000	21.487731	0.000454	20.908042
75.018742	-2.994700	3.869400	-11.587000	21.490516	0.000455	20.914621
76.017578	-2.998200	3.869400	-11.600000	21.481220	0.000455	20.881615
77.018630	-2.992600	3.869000	-11.578000	21.500701	0.000453	20.911536
78.021641	-3.008300	3.868500	-11.637000	21.511677	0.000456	20.896916
79.017180	-2.999500	3.868500	-11.603000	21.522069	0.000456	20.894513
80.015823	-2.976800	3.869100	-11.516000	21.536148	0.000454	20.901962
81.017506	-2.983500	3.869100	-11.542000	21.548683	0.000454	20.889375
82.017383	-2.995700	3.867900	-11.586000	21.534597	0.000453	20.896143
83.018878	-2.989200	3.868300	-11.562000	21.535467	0.000456	20.889427
84.019886	-2.986100	3.867100	-11.546000	21.550675	0.000455	20.877619
85.018486	-2.979100	3.868700	-11.524000	21.541802	0.000455	20.888180
86.025882	-2.968200	3.868000	-11.479000	21.582344	0.000454	20.897928
87.022056	-2.997600	3.866500	-11.589000	21.566967	0.000454	20.910515
88.020557	-2.990200	3.868600	-11.568000	21.617005	0.000454	20.884250
89.021159	-3.009900	3.865400	-11.634000	21.599525	0.000455	20.879561
90.020021	-2.975700	3.867700	-11.508000	21.614214	0.000457	20.885250
91.020811	-2.990600	3.865700	-11.559000	21.610805	0.000456	20.903175
92.021880	-2.992800	3.867300	-11.573000	21.616809	0.000456	20.885951
93.031386	-2.992300	3.865400	-11.565000	21.628810	0.000456	20.895115
94.024833	-2.998200	3.866000	-11.590000	21.651131	0.000459	20.888055
95.023492	-3.009200	3.865600	-11.631000	21.640597	0.000457	20.895056
96.019495	-2.993200	3.865700	-11.570000	21.685212	0.000456	20.921684
97.021305	-2.998000	3.865400	-11.588000	21.673737	0.000458	20.879385
98.019515	-3.009600	3.865000	-11.631000	21.681019	0.000455	20.914170
99.021315	-3.019600	3.864400	-11.668000	21.665150	0.000456	20.891653
100.018840	-3.002300	3.864900	-11.602000	21.669148	0.000457	20.916040
101.021111	-2.992800	3.865600	-11.568000	21.699963	0.000456	20.910844
102.025527	-2.997800	3.864500	-11.584000	21.685413	0.000458	20.903869
103.023899	-3.016600	3.863700	-11.654000	21.685088	0.000457	20.930568
104.020014	-2.981400	3.863900	-11.518000	21.717279	0.000456	20.911104
105.024507	-2.988900	3.864100	-11.548000	21.729298	0.000457	20.917442
106.019119	-3.009100	3.862400	-11.622000	21.752908	0.000458	20.902193
107.020305	-2.987000	3.864300	-11.541000	21.757373	0.000460	20.922306
108.022902	-3.001900	3.863200	-11.596000	21.762273	0.000456	20.903030
109.020629	-2.999600	3.862800	-11.586000	21.769665	0.000458	20.914695
110.022936	-3.013000	3.862600	-11.637000	21.788693	0.000459	20.908609
111.023856	-3.027100	3.862200	-11.691000	21.784896	0.000459	20.922351
112.027543	-3.019300	3.862100	-11.660000	21.793605	0.000458	20.899302
113.025017	-3.029300	3.862700	-11.700000	21.802288	0.000460	20.902302
114.021632	-3.011400	3.862500	-11.631000	21.803021	0.000460	20.914415
115.032053	-3.009200	3.862800	-11.623000	21.811989	0.000460	20.920071
116.028976	-3.023900	3.861400	-11.676000	21.824943	0.000460	20.911700
117.027450	-3.002000	3.861700	-11.591000	21.842490	0.000459	20.915986
118.032731	-2.984700	3.862200	-11.527000	21.807278	0.000458	20.926260
119.038143	-2.989000	3.862800	-11.545000	21.831302	0.000462	20.919012
120.025077	-3.012000	3.860000	-11.625000	21.847986	0.000461	20.916272
121.031427	-2.993700	3.860900	-11.557000	21.861750	0.000461	20.911556
122.030036	-2.976700	3.860200	-11.489000	21.885195	0.000462	20.917953
123.024627	-3.010600	3.861100	-11.623000	21.876928	0.000461	20.924851
124.033195	-2.986500	3.862100	-11.533000	21.900801	0.000460	20.916031
125.026358	-3.002800	3.860400	-11.591000	21.883871	0.000463	20.899086
126.044210	-2.997800	3.860100	-11.571000	21.921708	0.000464	20.924629
127.026958	-2.998800	3.861500	-11.579000	21.901469	0.000462	20.909114
128.026125	-3.001800	3.860900	-11.589000	21.928048	0.000463	20.911536
129.027102	-2.983900	3.860500	-11.519000	21.944361	0.000462	20.926915
130.035128	-3.007700	3.859200	-11.607000	21.961303	0.000462	20.911633
131.037592	-2.992600	3.860600	-11.552000	21.944905	0.000464	20.929357
132.029747	-2.979500	3.859800	-11.499000	21.955112	0.000463	20.947158
133.023946	-2.982200	3.860100	-11.510000	21.974189	0.000465	20.908412
134.023868	-3.005900	3.858500	-11.597000	21.969186	0.000462	20.934695
135.025766	-2.985900	3.860000	-11.524000	21.992181	0.000466	20.937799
136.030500	-3.018900	3.858100	-11.646000	22.003153	0.000465	20.929343
137.029085	-2.996500	3.859000	-11.563000	21.996016	0.000466	20.921725
138.030104	-2.993000	3.858700	-11.548000	21.997463	0.000466	20.922225
139.027798	-3.002600	3.859100	-11.586000	22.005060	0.000464	20.935993
140.038405	-3.007800	3.858100	-11.604000	22.041194	0.000466	20.931863
141.028417	-3.001900	3.858200	-11.580000	22.045022	0.000466	20.930953
142.030841	-2.969500	3.859300	-11.459000	22.029580	0.000468	20.935409
143.028521	-3.005600	3.858100	-11.595000	22.051361	0.000467	20.928290
144.030586	-3.001000	3.857100	-11.573000	22.046306	0.000466	20.944565
145.032276	-2.996300	3.857100	-11.556000	22.068508	0.000468	20.933129
146.036658	-3.000800	3.856900	-11.572000	22.087084	0.000466	20.947929
147.029471	-3.006900	3.857700	-11.599000	22.079214	0.000468	20.955222
148.042504	-2.995500	3.857500	-11.554000	22.071240	0.000470	20.936337
149.032775	-3.026800	3.856100	-11.671000	22.093467	0.000470	20.958112
150.031343	-3.018000	3.856400	-11.637000	22.091203	0.000468	20.943993
151.036589	-2.983000	3.856900	-11.504000	22.085805	0.000470	20.931952
152.037375	-2.959400	3.858700	-11.418000	22.102193	0.000470	20.937453
153.038433	-2.993600	3.856500	-11.543000	22.112022	0.000471	20.936862
154.036109	-2.980000	3.856700	-11.491000	22.101162	0.000469	20.926938
155.043341	-2.997400	3.856000	-11.557000	22.106202	0.000469	20.959008
156.037982	-3.001400	3.855500	-11.571000	22.098469	0.000471	20.942259
157.032843	-2.977800	3.856300	-11.482000	22.134353	0.000471	20.943570
158.041151	-2.997100	3.855600	-11.555000	22.129188	0.000472	20.931289
159.047122	-3.010400	3.855400	-11.605000	22.144733	0.000471	20.946376
160.035410	-3.018100	3.855800	-11.636000	22.142786	0.000471	20.954857
161.034618	-3.008800	3.855400	-11.599000	22.160822	0.000473	20.968644
162.043659	-3.030900	3.855000	-11.683000	22.163475	0.000473	20.960397
163.038099	-3.014100	3.853700	-11.614000	22.202568	0.000471	20.965871
164.039728	-2.997800	3.855100	-11.556000	22.190203	0.000473	20.962975
165.039719	-3.015700	3.854900	-11.625000	22.226221	0.000473	20.957786
166.042171	-3.014400	3.852700	-11.612000	22.222581	0.000475	20.967417
167.036582	-2.997800	3.853900	-11.552000	22.203846	0.000477	20.945816
168.037622	-3.018600	3.853500	-11.631000	22.249438	0.000474	20.972021
169.040586	-2.999600	3.854200	-11.560000	22.258824	0.000477	20.960084
170.038967	-2.978700	3.853500	-11.477000	22.283967	0.000474	20.962974
171.041214	-2.999400	3.852700	-11.555000	22.275489	0.000475	20.983879
172.043694	-2.988500	3.852900	-11.513000	22.274808	0.000474	20.969923
173.041527	-3.014600	3.852900	-11.614000	22.267938	0.000476	20.969683
174.042066	-2.980200	3.854400	-11.485000	22.268042	0.000477	20.948453
175.049724	-2.991800	3.852600	-11.525000	22.277720	0.000475	20.977580
176.042130	-2.990900	3.852400	-11.521000	22.272479	0.000478	20.958109
177.041584	-3.025500	3.850200	-11.648000	22.282053	0.000477	20.962954
178.044058	-3.017800	3.851800	-11.623000	22.269786	0.000477	20.961103
179.047382	-3.026400	3.851100	-11.653000	22.280911	0.000479	20.971767
180.046834	-2.997800	3.851700	-11.546000	22.298400	0.000477	20.976001
181.045281	-3.007700	3.851400	-11.583000	22.349300	0.000479	20.970546
182.046319	-2.998900	3.850000	-11.545000	22.352323	0.000478	20.964090
183.051941	-2.995400	3.851800	-11.537000	22.346615	0.000479	20.977813
184.048414	-3.024300	3.850400	-11.644000	22.348502	0.000479	21.001036
185.051542	-3.010200	3.851200	-11.592000	22.364679	0.000479	20.981203
186.062347	-3.009100	3.850700	-11.586000	22.370459	0.000479	20.999789
187.049654	-3.014300	3.849200	-11.602000	22.381064	0.000478	20.987651
188.048027	-3.021000	3.850000	-11.631000	22.380421	0.000481	20.963304
189.053126	-3.015200	3.848100	-11.602000	22.382737	0.000480	20.985060
190.052259	-3.004700	3.848900	-11.564000	22.416063	0.000481	20.980975
191.054262	-3.003100	3.849200	-11.558000	22.433452	0.000481	20.967571
192.049612	-3.011300	3.849800	-11.592000	22.416796	0.000484	20.992613
193.048542	-2.998200	3.849800	-11.542000	22.428367	0.000482	20.979546
194.054842	-3.013200	3.849400	-11.599000	22.412768	0.000482	20.985261
195.055016	-2.993800	3.848200	-11.520000	22.443797	0.000482	20.986462
196.053889	-3.014600	3.848100	-11.600000	22.446690	0.000481	20.997892
197.052298	-2.990500	3.848500	-11.508000	22.446430	0.000485	20.981988
198.050395	-2.987900	3.849700	-11.501000	22.454920	0.000483	20.978637
199.053440	-2.989000	3.848700	-11.503000	22.463832	0.000484	20.982819
200.052429	-2.997700	3.848600	-11.536000	22.494418	0.000485	20.983579
201.059326	-3.014800	3.847400	-11.598000	22.486266	0.000484	20.977312
202.054756	-2.996000	3.846600	-11.522000	22.504620	0.000486	20.987631
203.053693	-3.000400	3.847500	-11.543000	22.481920	0.000486	21.012309
204.058869	-2.995900	3.847800	-11.527000	22.521554	0.000486	21.008854
205.057173	-2.997000	3.847100	-11.529000	22.519654	0.000487	21.006951
206.054602	-2.994500	3.847200	-11.518000	22.533357	0.000484	21.012140
207.057397	-2.999100	3.846200	-11.535000	22.524544	0.000487	21.001892
208.059390	-3.002300	3.845800	-11.546000	22.534570	0.000486	20.983014
209.055629	-2.997900	3.846200	-11.530000	22.540115	0.000488	20.995203
210.054754	-2.986800	3.847300	-11.490000	22.539382	0.000486	21.004425
211.055061	-3.002400	3.845500	-11.545000	22.573300	0.000487	20.992878
212.057899	-2.997800	3.846200	-11.529000	22.563521	0.000487	21.002522
213.062532	-2.996800	3.845700	-11.523000	22.566860	0.000489	21.017718
214.055458	-2.993700	3.844500	-11.509000	22.571303	0.000488	21.031174
215.059521	-2.985100	3.846500	-11.481000	22.563203	0.000488	21.023537
216.055280	-3.019800	3.844000	-11.607000	22.589500	0.000489	21.007204
217.059403	-3.001200	3.844700	-11.537000	22.583586	0.000489	20.996067
218.059232	-3.012100	3.843700	-11.576000	22.612379	0.000488	20.998827
219.056631	-3.006300	3.843300	-11.553000	22.617347	0.000491	21.009016
220.057972	-2.988500	3.844800	-11.488000	22.599416	0.000490	21.017134
221.056434	-2.999200	3.844800	-11.530000	22.608119	0.000492	21.013049
222.054564	-3.016100	3.843300	-11.591000	22.621795	0.000491	21.030537
223.057613	-3.012800	3.843600	-11.580000	22.629713	0.000490	21.024719
224.060198	-3.008900	3.842500	-11.560000	22.655062	0.000493	21.014075
225.057437	-3.002100	3.842600	-11.534000	22.659744	0.000492	21.031563
226.063188	-2.991500	3.844000	-11.499000	22.657111	0.000492	21.022764
227.059654	-2.986300	3.842000	-11.473000	22.688121	0.000492	21.025849
228.061951	-3.001900	3.842900	-11.534000	22.692803	0.000492	21.035278
229.059254	-3.004000	3.841000	-11.537000	22.726249	0.000491	21.018998
230.057469	-3.000500	3.841400	-11.525000	22.716523	0.000495	21.030589
231.056789	-2.972400	3.842000	-11.419000	22.720919	0.000494	21.027881
232.063893	-2.989500	3.841600	-11.484000	22.704079	0.000494	21.024290
233.061757	-2.993700	3.841000	-11.498000	22.710563	0.000496	21.029836
234.063827	-3.009300	3.841200	-11.558000	22.715829	0.000497	21.030843
235.062747	-3.026100	3.841300	-11.623000	22.720802	0.000495	21.013068
236.062091	-3.028600	3.841300	-11.632000	22.710538	0.000496	21.025543
237.065654	-2.996400	3.841500	-11.510000	22.697731	0.000495	21.029310
238.061135	-3.005200	3.840700	-11.541000	22.726243	0.000497	21.017569
239.063033	-3.002900	3.839800	-11.530000	22.739756	0.000498	21.035369
240.061237	-3.014700	3.839700	-11.574000	22.741066	0.000499	21.027673
241.064600	-2.987600	3.839800	-11.471000	22.740437	0.000497	21.022777
242.061004	-2.998300	3.839400	-11.511000	22.782590	0.000497	21.027069
243.063347	-3.008200	3.838600	-11.546000	22.790481	0.000498	21.037817
244.063545	-3.029400	3.837600	-11.625000	22.786584	0.000498	21.044817
245.063793	-3.024300	3.839500	-11.610000	22.797607	0.000499	21.028836
246.062432	-2.994900	3.839000	-11.496000	22.811774	0.000500	21.059143
247.059937	-3.009000	3.838100	-11.548000	22.806230	0.000499	21.061649
248.063093	-3.007700	3.838700	-11.545000	22.790811	0.000500	21.055214
249.064594	-3.006600	3.838300	-11.539000	22.804570	0.000500	21.031544
250.062473	-2.988300	3.838100	-11.468000	22.836146	0.000500	21.044681
251.062501	-2.988500	3.837200	-11.467000	22.815742	0.000501	21.060747
252.063409	-2.995800	3.837100	-11.495000	22.834726	0.000502	21.060325
253.062442	-3.010200	3.837200	-11.549000	22.860460	0.000502	21.058604
254.062540	-3.011100	3.836200	-11.551000	22.873349	0.000502	21.053026
255.065234	-3.022800	3.836200	-11.595000	22.876370	0.000502	21.042778
256.065587	-2.997300	3.835400	-11.495000	22.868531	0.000503	21.058630
257.067319	-2.973100	3.836600	-11.405000	22.887178	0.000503	21.059766
258.069757	-3.003200	3.836000	-11.519000	22.876843	0.000502	21.058896
259.071458	-3.003900	3.836700	-11.524000	22.899159	0.000502	21.065130
260.069414	-3.004600	3.836400	-11.526000	22.892987	0.000502	21.054681
261.072358	-3.007900	3.835700	-11.535000	22.900611	0.000505	21.055682
262.068895	-3.013000	3.834800	-11.553000	22.913279	0.000503	21.067422
263.067405	-3.017100	3.835100	-11.569000	22.914019	0.000505	21.075747
264.068413	-3.022800	3.834600	-11.590000	22.966311	0.000505	21.060338
265.075690	-3.009800	3.835300	-11.542000	22.976165	0.000505	21.040817
266.068406	-2.996200	3.835800	-11.492000	22.989364	0.000505	21.082955
267.072235	-3.018600	3.834300	-11.573000	22.993331	0.000506	21.062279
268.067720	-2.976800	3.835900	-11.418000	22.997085	0.000508	21.064617
269.074240	-3.022400	3.833300	-11.584000	23.003606	0.000507	21.077312
270.069859	-3.008300	3.833800	-11.533000	23.037154	0.000509	21.068253
271.070887	-3.017500	3.833800	-11.567000	22.994719	0.000507	21.068883
272.069395	-3.016600	3.833400	-11.563000	23.006161	0.000507	21.063753
