LabVIEW Measurement	
Writer_Version	2
Reader_Version	2
Separator	Tab
Decimal_Separator	.
Multi_Headings	No
X_Columns	One
Time_Pref	Absolute
Operator	admin
Description	Clolumns are: time, Current, Voltage, Power, Battery Temp, and Chamber Temp
Date	2024/08/16
Time	13:07:17.8513970375061035156
***End_of_Header***	
	
Channels	6						
Samples	1	1	1	1	1	1	
Date	2024/09/02	2024/09/02	2024/09/02	2024/09/02	2024/09/02	2024/09/02	
Time	01:41:16.3323359489440917969	01:41:16.3397974967956542969	01:41:16.3457465171813964844	01:41:16.3166728019714355469	01:41:16.3166728019714355469	01:41:16.3166728019714355469	
X_Dimension	Time	Time	Time	Time	Time	Time	
X0	0.0000000000000000E+0	0.0000000000000000E+0	0.0000000000000000E+0	0.0000000000000000E+0	0.0000000000000000E+0	0.0000000000000000E+0	
Delta_X	1.000000	1.000000	1.000000	1.000000	1.000000	1.000000	
***End_of_Header***							
X_Value	Untitled	Untitled 1	Untitled 2	Untitled 3	Untitled 4	Untitled 5	Comment
0.000000	0.003724	4.087000	0.015256	20.958427	0.000468	20.970279
1.003515	-3.024200	3.923500	-11.864000	20.968152	0.000469	20.973367
2.001031	-3.002700	3.918200	-11.764000	20.969036	0.000468	20.951494
3.002677	-2.992400	3.914200	-11.712000	20.978517	0.000465	20.951020
4.002408	-3.018200	3.909900	-11.800000	20.975173	0.000466	20.956684
5.001307	-3.017700	3.907000	-11.790000	20.978722	0.000465	20.965448
6.001786	-3.017400	3.904100	-11.780000	20.984411	0.000463	20.948855
7.006681	-3.011700	3.904200	-11.757000	21.002618	0.000462	20.954736
8.003657	-2.994500	3.902200	-11.683000	21.003604	0.000463	20.949559
9.005842	-3.025500	3.897900	-11.793000	21.016110	0.000461	20.939783
10.003518	-3.005300	3.897900	-11.714000	21.017096	0.000461	20.958311
11.004497	-3.002900	3.896100	-11.699000	21.011882	0.000460	20.947407
12.005994	-2.981500	3.895600	-11.613000	21.017570	0.000459	20.934132
13.006091	-3.015700	3.894500	-11.744000	21.047257	0.000460	20.942487
14.005693	-3.007300	3.891700	-11.702000	21.034086	0.000461	20.936426
15.004772	-2.988400	3.891800	-11.630000	21.037725	0.000457	20.951443
16.006024	-3.002900	3.890300	-11.682000	21.020402	0.000459	20.926060
17.008902	-2.969500	3.890300	-11.552000	21.057058	0.000458	20.936170
18.005636	-2.995400	3.889000	-11.648000	21.058237	0.000458	20.932133
19.007089	-2.998600	3.887700	-11.657000	21.063823	0.000456	20.945780
20.009427	-3.024100	3.885500	-11.749000	21.080888	0.000456	20.932031
21.005526	-3.006300	3.886300	-11.683000	21.070280	0.000456	20.914310
22.007826	-2.975900	3.886300	-11.564000	21.102027	0.000458	20.937054
23.009382	-2.998700	3.884400	-11.647000	21.101990	0.000455	20.913785
24.008177	-2.984000	3.885300	-11.593000	21.119528	0.000456	20.928008
25.010097	-2.985500	3.883800	-11.594000	21.113559	0.000454	20.929149
26.008704	-2.991400	3.883700	-11.616000	21.115109	0.000455	20.916002
27.010439	-3.009400	3.882300	-11.682000	21.125960	0.000453	20.912158
28.009054	-3.001900	3.881400	-11.651000	21.131597	0.000453	20.906417
29.007523	-3.014400	3.880200	-11.696000	21.130073	0.000451	20.897307
30.012280	-2.976600	3.882200	-11.554000	21.137132	0.000450	20.926176
31.012963	-2.993300	3.880500	-11.614000	21.151800	0.000452	20.911927
32.010061	-3.004900	3.880300	-11.659000	21.141321	0.000451	20.900497
33.012866	-2.994700	3.879200	-11.617000	21.143973	0.000451	20.924484
34.012050	-2.997500	3.879800	-11.628000	21.163804	0.000451	20.908762
35.010078	-3.003100	3.879000	-11.648000	21.182815	0.000450	20.913554
36.011812	-3.004300	3.878200	-11.650000	21.209166	0.000449	20.918103
37.012130	-3.000500	3.877800	-11.634000	21.227728	0.000449	20.911542
38.010029	-3.011900	3.876600	-11.675000	21.208910	0.000450	20.892245
39.016020	-2.991700	3.877200	-11.598000	21.223130	0.000449	20.909313
40.012657	-3.002400	3.877400	-11.641000	21.223079	0.000451	20.902624
41.013373	-3.007300	3.875800	-11.655000	21.228536	0.000449	20.929892
42.011351	-3.004100	3.876800	-11.645000	21.242319	0.000450	20.904328
43.010544	-2.975900	3.876600	-11.536000	21.262572	0.000448	20.916053
44.010428	-3.033800	3.875600	-11.756000	21.263891	0.000449	20.899357
45.010253	-3.007000	3.875700	-11.653000	21.275011	0.000449	20.886300
46.011219	-3.002300	3.874600	-11.632000	21.283862	0.000449	20.904636
47.013926	-3.013300	3.874500	-11.674000	21.300950	0.000449	20.903714
48.012724	-3.014900	3.873200	-11.676000	21.281748	0.000448	20.900625
49.011458	-3.016300	3.873300	-11.683000	21.323161	0.000449	20.913606
50.017298	-3.015500	3.872500	-11.677000	21.306535	0.000450	20.909301
51.013762	-3.004800	3.872200	-11.633000	21.320292	0.000448	20.915476
52.018818	-3.006800	3.872100	-11.642000	21.343886	0.000448	20.904470
53.018178	-2.989300	3.874600	-11.582000	21.351571	0.000448	20.911684
54.028695	-3.024400	3.871400	-11.706000	21.352737	0.000447	20.902419
55.015477	-3.027000	3.871600	-11.718000	21.350124	0.000449	20.899805
56.015242	-3.012400	3.871700	-11.662000	21.343296	0.000449	20.900087
57.018153	-3.005700	3.871000	-11.634000	21.371809	0.000449	20.928610
58.022741	-3.027700	3.869700	-11.715000	21.391278	0.000449	20.901625
59.017038	-3.009500	3.870800	-11.648000	21.381261	0.000448	20.887811
60.016536	-3.001200	3.870500	-11.614000	21.419251	0.000448	20.898318
61.016350	-2.991200	3.871300	-11.579000	21.408044	0.000445	20.892796
62.016679	-3.011300	3.870900	-11.655000	21.403561	0.000446	20.887362
63.018745	-3.001400	3.871700	-11.619000	21.423144	0.000448	20.889887
64.017720	-2.998800	3.870500	-11.606000	21.459134	0.000449	20.894128
65.015970	-2.992800	3.869700	-11.580000	21.447287	0.000447	20.889861
66.019249	-2.981100	3.869600	-11.535000	21.461785	0.000445	20.893936
67.017929	-2.998800	3.868300	-11.599000	21.450489	0.000445	20.869358
68.021211	-2.988600	3.870200	-11.565000	21.449157	0.000449	20.912119
69.017415	-3.002400	3.867800	-11.612000	21.460670	0.000447	20.894243
70.018421	-2.997100	3.867800	-11.591000	21.466831	0.000447	20.907044
71.019471	-2.995600	3.869400	-11.591000	21.477794	0.000445	20.878187
72.018035	-2.991600	3.869100	-11.574000	21.503742	0.000449	20.882813
73.022199	-2.994900	3.868800	-11.586000	21.495481	0.000447	20.887823
74.019448	-2.987600	3.867900	-11.555000	21.511015	0.000447	20.886297
75.020037	-2.979000	3.867900	-11.522000	21.517291	0.000448	20.884517
76.027963	-2.979300	3.868700	-11.525000	21.538294	0.000448	20.878033
77.020042	-2.988000	3.869300	-11.560000	21.527575	0.000447	20.884375
78.022248	-2.991800	3.867100	-11.568000	21.545428	0.000448	20.888963
79.019340	-3.001100	3.866400	-11.603000	21.559041	0.000448	20.886464
80.020448	-3.007100	3.867400	-11.628000	21.570669	0.000449	20.872497
81.020072	-3.030900	3.865800	-11.715000	21.567954	0.000452	20.879737
82.020976	-2.994500	3.866200	-11.577000	21.575369	0.000449	20.878621
83.033078	-2.995400	3.865800	-11.578000	21.586510	0.000450	20.883606
84.021739	-3.022800	3.865700	-11.684000	21.607589	0.000447	20.871510
85.021590	-3.011400	3.865500	-11.639000	21.611047	0.000448	20.879237
86.021686	-3.000600	3.867100	-11.603000	21.613326	0.000447	20.878198
87.022886	-3.005900	3.864800	-11.616000	21.632227	0.000449	20.872458
88.023603	-2.980000	3.865400	-11.518000	21.617962	0.000450	20.879993
89.025753	-2.999100	3.864500	-11.589000	21.618922	0.000449	20.861040
90.024292	-2.997500	3.865600	-11.586000	21.630562	0.000448	20.875533
91.023328	-3.013700	3.865400	-11.648000	21.657864	0.000448	20.881991
92.025576	-2.994100	3.865200	-11.572000	21.660143	0.000448	20.882850
93.024181	-2.983300	3.866100	-11.532000	21.657377	0.000448	20.874392
94.024806	-2.978000	3.864900	-11.509000	21.675727	0.000449	20.879479
95.025564	-2.983100	3.866000	-11.532000	21.689441	0.000447	20.878506
96.023998	-2.996100	3.864300	-11.577000	21.694461	0.000448	20.872624
97.028003	-2.987800	3.863600	-11.543000	21.719303	0.000449	20.879941
98.024859	-2.989100	3.863800	-11.548000	21.722145	0.000451	20.861925
99.029017	-2.995600	3.864400	-11.576000	21.731735	0.000448	20.855876
100.027071	-2.990500	3.863100	-11.552000	21.736435	0.000452	20.890923
101.026645	-2.987700	3.864800	-11.546000	21.730021	0.000451	20.883555
102.027984	-3.013100	3.863000	-11.639000	21.748394	0.000451	20.877288
103.026969	-2.998500	3.863800	-11.585000	21.791275	0.000450	20.876109
104.027278	-2.996700	3.863800	-11.578000	21.763721	0.000452	20.870343
105.028251	-2.988800	3.863200	-11.545000	21.773568	0.000451	20.873086
106.026174	-2.981900	3.863200	-11.519000	21.776141	0.000450	20.870920
107.026480	-2.997800	3.863500	-11.581000	21.788305	0.000452	20.881671
108.028872	-2.995100	3.862900	-11.569000	21.797754	0.000451	20.878801
109.026915	-2.996700	3.861400	-11.571000	21.790456	0.000450	20.860117
110.032763	-3.010300	3.860500	-11.620000	21.819277	0.000454	20.875687
111.026721	-2.968900	3.863200	-11.469000	21.816384	0.000452	20.857144
112.029775	-2.975500	3.863000	-11.493000	21.820993	0.000452	20.868870
113.027957	-2.982400	3.861500	-11.516000	21.833157	0.000451	20.850699
114.027359	-2.995000	3.862100	-11.566000	21.838995	0.000452	20.895894
115.029285	-2.981400	3.861100	-11.511000	21.835346	0.000451	20.871856
116.032250	-2.996000	3.862400	-11.571000	21.842785	0.000455	20.879300
117.029008	-3.017300	3.860900	-11.649000	21.861324	0.000453	20.871779
118.030920	-2.999300	3.861600	-11.581000	21.892448	0.000453	20.887284
119.033223	-3.009300	3.860900	-11.617000	21.893946	0.000453	20.860809
120.030917	-3.027100	3.859900	-11.683000	21.889324	0.000454	20.846227
121.033158	-3.025200	3.860800	-11.678000	21.889759	0.000456	20.869895
122.030944	-3.010500	3.859800	-11.619000	21.921267	0.000454	20.881517
123.031343	-3.019100	3.858700	-11.648000	21.917542	0.000456	20.862617
124.033422	-2.978800	3.861500	-11.502000	21.921088	0.000454	20.873278
125.033092	-2.992300	3.860500	-11.551000	21.924250	0.000456	20.874073
126.033500	-2.999400	3.859000	-11.573000	21.932558	0.000455	20.873855
127.033631	-3.010600	3.858100	-11.614000	21.925479	0.000455	20.851122
128.033707	-2.997500	3.858000	-11.564000	21.940534	0.000454	20.888001
129.033383	-2.983800	3.859500	-11.515000	21.963245	0.000454	20.860477
130.033132	-2.997000	3.858700	-11.562000	21.953017	0.000454	20.854031
131.037688	-3.003200	3.858300	-11.586000	21.966241	0.000458	20.853992
132.036482	-2.994600	3.859300	-11.556000	21.985060	0.000457	20.852442
133.034459	-3.010300	3.857800	-11.612000	21.996031	0.000458	20.871958
134.035193	-3.000700	3.857600	-11.575000	21.998745	0.000455	20.862348
135.034722	-3.000500	3.857700	-11.574000	22.008385	0.000455	20.874842
136.035279	-2.999400	3.857600	-11.569000	22.005965	0.000459	20.860567
137.038311	-3.018500	3.857400	-11.643000	22.018868	0.000458	20.856888
138.035290	-3.008400	3.856700	-11.601000	22.035408	0.000457	20.854480
139.033667	-3.005600	3.855900	-11.588000	22.047800	0.000457	20.875892
140.039341	-2.990200	3.855700	-11.528000	22.039748	0.000457	20.874944
141.034630	-3.003700	3.857400	-11.585000	22.041540	0.000457	20.868678
142.037486	-2.989600	3.855200	-11.525000	22.039351	0.000457	20.867909
143.034419	-2.990700	3.856900	-11.533000	22.064671	0.000460	20.870498
144.039333	-3.016200	3.856600	-11.631000	22.039223	0.000458	20.838385
145.035937	-3.021500	3.855600	-11.649000	22.082144	0.000459	20.844370
146.037429	-3.008500	3.854700	-11.596000	22.090286	0.000460	20.858210
147.038594	-3.017300	3.855400	-11.631000	22.087278	0.000461	20.864206
148.039137	-2.988300	3.855500	-11.520000	22.098235	0.000460	20.826814
149.039604	-2.983000	3.856700	-11.504000	22.106747	0.000460	20.852878
150.040656	-2.979500	3.855800	-11.487000	22.093665	0.000460	20.833618
151.041753	-3.038700	3.854800	-11.712000	22.132834	0.000460	20.827788
152.043033	-2.995600	3.855200	-11.547000	22.118037	0.000461	20.820086
153.042076	-3.004800	3.855900	-11.586000	22.138799	0.000463	20.857466
154.041007	-3.012900	3.854500	-11.612000	22.135126	0.000462	20.849996
155.042326	-3.001800	3.855700	-11.573000	22.154134	0.000463	20.824931
156.043845	-3.005700	3.854000	-11.583000	22.173461	0.000462	20.853289
157.042683	-3.010600	3.854800	-11.604000	22.144022	0.000463	20.846574
158.045873	-2.998800	3.854900	-11.560000	22.153698	0.000465	20.842986
159.043433	-2.976700	3.853300	-11.469000	22.177557	0.000462	20.845062
160.043739	-3.024500	3.853600	-11.654000	22.163683	0.000465	20.844447
161.043157	-3.004900	3.854600	-11.582000	22.192904	0.000461	20.840513
162.046238	-2.992600	3.853400	-11.531000	22.211245	0.000464	20.833273
163.046124	-2.979500	3.853800	-11.481000	22.219936	0.000464	20.838655
164.046614	-2.999000	3.852700	-11.553000	22.218861	0.000465	20.856070
165.043829	-3.000800	3.852000	-11.558000	22.236191	0.000464	20.847818
166.045390	-3.032300	3.852600	-11.681000	22.240991	0.000465	20.854994
167.045120	-3.011700	3.852600	-11.601000	22.260189	0.000465	20.857147
168.044725	-3.000300	3.851900	-11.555000	22.256247	0.000466	20.845140
169.050986	-3.005300	3.852300	-11.576000	22.273781	0.000467	20.845153
170.045112	-2.996300	3.853100	-11.544000	22.283675	0.000468	20.865964
171.047197	-3.009300	3.851300	-11.589000	22.288461	0.000465	20.856532
172.048435	-2.997400	3.851200	-11.543000	22.300734	0.000468	20.846062
173.046711	-3.001600	3.850200	-11.556000	22.313737	0.000467	20.847229
174.048752	-2.990300	3.851000	-11.514000	22.309143	0.000467	20.841206
175.046136	-2.990000	3.850800	-11.513000	22.316579	0.000468	20.835375
176.049879	-3.011500	3.849600	-11.592000	22.332051	0.000468	20.850868
177.049507	-3.018800	3.850400	-11.623000	22.339449	0.000470	20.840258
178.053234	-2.997300	3.849300	-11.537000	22.335315	0.000467	20.831852
179.051148	-2.978800	3.850200	-11.468000	22.339551	0.000468	20.835145
180.053595	-2.984800	3.850200	-11.491000	22.342111	0.000471	20.819217
181.052456	-3.005400	3.849700	-11.569000	22.350442	0.000470	20.821869
182.054981	-3.026500	3.848300	-11.646000	22.338284	0.000469	20.827712
183.054175	-2.996600	3.850000	-11.536000	22.357544	0.000469	20.820447
184.052973	-3.008500	3.848900	-11.579000	22.374680	0.000472	20.825751
185.054536	-2.972700	3.850600	-11.445000	22.373874	0.000470	20.840591
186.054312	-3.016500	3.849300	-11.610000	22.401081	0.000470	20.818524
187.055827	-3.002800	3.848600	-11.556000	22.387273	0.000471	20.828405
188.053006	-3.016500	3.847600	-11.605000	22.404293	0.000473	20.826957
189.053576	-3.006400	3.848000	-11.568000	22.382998	0.000474	20.823176
190.054603	-2.996700	3.849700	-11.535000	22.404395	0.000473	20.827059
191.056593	-2.999300	3.848000	-11.540000	22.431755	0.000473	20.838810
192.055951	-2.987300	3.848300	-11.495000	22.415708	0.000474	20.808042
193.056320	-2.992000	3.848200	-11.513000	22.421236	0.000475	20.833966
194.057273	-3.010700	3.846600	-11.580000	22.420264	0.000475	20.842949
195.056048	-3.016200	3.846800	-11.601000	22.428863	0.000474	20.817897
196.058135	-2.988200	3.847900	-11.497000	22.424244	0.000477	20.826073
197.057780	-3.002400	3.848600	-11.554000	22.444833	0.000475	20.833415
198.058055	-3.004500	3.847000	-11.558000	22.429055	0.000477	20.825201
199.063096	-3.008600	3.845500	-11.569000	22.441570	0.000474	20.833941
200.057092	-2.979900	3.847300	-11.465000	22.460407	0.000477	20.818192
201.062042	-2.997700	3.845700	-11.527000	22.465564	0.000475	20.827149
202.058975	-3.020600	3.845400	-11.615000	22.470746	0.000475	20.826175
203.058733	-3.008400	3.845900	-11.569000	22.475161	0.000476	20.826329
204.059963	-3.019600	3.844800	-11.608000	22.496582	0.000478	20.822652
205.060828	-2.999500	3.844800	-11.532000	22.494637	0.000477	20.808376
206.059575	-2.995600	3.844000	-11.515000	22.506051	0.000479	20.800841
207.064612	-3.010800	3.844200	-11.574000	22.518629	0.000478	20.808222
208.059993	-2.987800	3.846500	-11.491000	22.533792	0.000478	20.803967
209.060770	-3.010700	3.842800	-11.569000	22.531387	0.000479	20.817680
210.063365	-2.999000	3.844300	-11.528000	22.536952	0.000479	20.809978
211.060002	-3.011500	3.843600	-11.574000	22.563835	0.000479	20.793754
212.062305	-3.007600	3.844400	-11.561000	22.575288	0.000481	20.810440
213.064704	-2.997400	3.843900	-11.520000	22.558973	0.000480	20.809273
214.060876	-3.007100	3.844300	-11.559000	22.560189	0.000480	20.816180
215.061018	-3.017500	3.842500	-11.594000	22.561252	0.000481	20.806339
216.060058	-3.009300	3.842900	-11.564000	22.565589	0.000478	20.804994
217.063803	-2.981200	3.843900	-11.459000	22.572793	0.000480	20.810312
218.062258	-2.997300	3.841900	-11.514000	22.594544	0.000483	20.808389
219.062006	-2.999000	3.842100	-11.522000	22.573522	0.000483	20.803929
220.064871	-2.993800	3.842000	-11.501000	22.609540	0.000482	20.799227
221.061970	-2.993300	3.841600	-11.498000	22.588569	0.000485	20.804775
222.064625	-3.000100	3.842700	-11.527000	22.618739	0.000483	20.793742
223.065249	-3.008900	3.841800	-11.559000	22.607479	0.000483	20.794793
224.066168	-3.044100	3.840300	-11.689000	22.627286	0.000482	20.829803
225.065086	-2.999100	3.842000	-11.522000	22.648319	0.000485	20.811990
226.065567	-3.001300	3.841200	-11.527000	22.654192	0.000485	20.818346
227.069763	-3.003400	3.839800	-11.532000	22.650097	0.000485	20.796701
228.070246	-3.012800	3.841100	-11.571000	22.687559	0.000484	20.813361
229.066182	-2.985400	3.841000	-11.466000	22.698151	0.000485	20.804057
230.067278	-3.003600	3.840900	-11.535000	22.687213	0.000485	20.785514
231.067746	-2.964300	3.842500	-11.389000	22.685345	0.000488	20.794549
232.066543	-3.005600	3.840500	-11.543000	22.694595	0.000487	20.787692
233.067367	-2.994400	3.840700	-11.499000	22.682377	0.000486	20.804852
234.067740	-3.008100	3.838800	-11.545000	22.684999	0.000488	20.797996
235.070867	-2.989600	3.840000	-11.479000	22.689311	0.000489	20.793306
236.069026	-2.993000	3.839100	-11.489000	22.701579	0.000487	20.799905
237.069347	-3.001400	3.838700	-11.520000	22.737466	0.000486	20.788436
238.072275	-2.991600	3.839100	-11.484000	22.742020	0.000487	20.798214
239.073273	-2.995300	3.840000	-11.501000	22.755798	0.000489	20.794946
240.071233	-2.990900	3.839900	-11.484000	22.743849	0.000489	20.789141
241.071850	-2.995200	3.837900	-11.494000	22.771022	0.000488	20.788385
242.074106	-3.019000	3.838200	-11.587000	22.755209	0.000488	20.791985
243.072205	-3.013100	3.837900	-11.563000	22.772531	0.000491	20.772352
244.072011	-3.004500	3.837700	-11.529000	22.776215	0.000490	20.785526
245.071977	-3.005000	3.838000	-11.532000	22.792705	0.000489	20.763638
246.073265	-2.987900	3.837600	-11.465000	22.801852	0.000491	20.784655
247.074589	-2.993600	3.838000	-11.488000	22.804589	0.000491	20.787872
248.074305	-3.003000	3.837600	-11.523000	22.811638	0.000492	20.779760
249.078312	-2.994700	3.835200	-11.484000	22.812047	0.000491	20.791075
250.073910	-2.989600	3.837100	-11.471000	22.845652	0.000492	20.785859
251.073541	-2.991200	3.835900	-11.473000	22.826912	0.000494	20.779888
252.076746	-3.006900	3.834900	-11.531000	22.834932	0.000492	20.788397
253.073538	-3.014600	3.834500	-11.558000	22.847021	0.000492	20.773954
254.072467	-2.991500	3.836800	-11.477000	22.841648	0.000492	20.778529
255.075306	-3.004600	3.836600	-11.527000	22.851139	0.000492	20.794676
256.073915	-2.996400	3.836000	-11.493000	22.851280	0.000494	20.760677
257.073575	-2.990900	3.834800	-11.469000	22.866285	0.000494	20.774761
258.077183	-3.010000	3.833900	-11.539000	22.873333	0.000493	20.775658
259.073630	-2.989200	3.834400	-11.461000	22.894925	0.000493	20.804402
260.076834	-3.003700	3.833800	-11.515000	22.885229	0.000495	20.797533
261.074689	-3.003700	3.833500	-11.514000	22.887660	0.000496	20.777209
262.075030	-3.014100	3.833500	-11.553000	22.866310	0.000496	20.797546
263.073699	-3.000300	3.834000	-11.503000	22.895309	0.000498	20.798148
264.073929	-2.979800	3.833300	-11.422000	22.908675	0.000495	20.800634
265.075910	-2.993800	3.832200	-11.472000	22.900144	0.000497	20.776914
266.074783	-2.991900	3.832200	-11.465000	22.935243	0.000496	20.787896
267.074598	-2.988300	3.832700	-11.452000	22.925483	0.000496	20.795188
268.075056	-3.005500	3.832600	-11.517000	22.941599	0.000498	20.805170
269.074062	-3.009800	3.831900	-11.532000	22.921416	0.000500	20.793958
270.079010	-2.997100	3.831700	-11.483000	22.939681	0.000497	20.789024
271.075886	-3.000600	3.831500	-11.496000	22.955848	0.000500	20.789100
272.075687	-2.994300	3.831500	-11.471000	22.954851	0.000500	20.796636
