LabVIEW Measurement	
Writer_Version	2
Reader_Version	2
Separator	Tab
Decimal_Separator	.
Multi_Headings	No
X_Columns	One
Time_Pref	Absolute
Operator	admin
Description	Clolumns are: time, Current, Voltage, Power, Battery Temp, and Chamber Temp
Date	2024/08/16
Time	13:07:17.8513970375061035156
***End_of_Header***	
	
Channels	6						
Samples	1	1	1	1	1	1	
Date	2024/09/12	2024/09/12	2024/09/12	2024/09/12	2024/09/12	2024/09/12	
Time	15:20:29.8599414825439453125	15:20:29.8659424781799316406	15:20:29.8719429969787597656	15:20:29.8445425033569335937	15:20:29.8445425033569335937	15:20:29.8445425033569335937	
X_Dimension	Time	Time	Time	Time	Time	Time	
X0	0.0000000000000000E+0	0.0000000000000000E+0	0.0000000000000000E+0	0.0000000000000000E+0	0.0000000000000000E+0	0.0000000000000000E+0	
Delta_X	1.000000	1.000000	1.000000	1.000000	1.000000	1.000000	
***End_of_Header***							
X_Value	Untitled	Untitled 1	Untitled 2	Untitled 3	Untitled 4	Untitled 5	Comment
0.000000	0.017434	4.086600	0.071252	20.734477	0.000459	20.746331
1.001401	-3.006700	3.916300	-11.774000	20.748436	0.000459	20.738952
2.003083	-2.995800	3.911800	-11.718000	20.739100	0.000458	20.739575
3.001729	-3.004800	3.907200	-11.739000	20.758966	0.000456	20.724826
3.999550	-2.998300	3.903900	-11.703000	20.754052	0.000455	20.740775
5.001832	-3.026100	3.898900	-11.798000	20.759342	0.000457	20.742746
6.004830	-3.018400	3.897200	-11.763000	20.759298	0.000457	20.740805
7.006122	-2.974700	3.896400	-11.590000	20.773572	0.000455	20.742751
8.003891	-2.993300	3.894400	-11.655000	20.784275	0.000455	20.735910
9.001510	-3.016100	3.891400	-11.736000	20.777845	0.000454	20.755085
10.005379	-2.981500	3.890700	-11.599000	20.771755	0.000455	20.741408
11.002889	-3.011300	3.889500	-11.712000	20.794341	0.000452	20.731751
12.004720	-2.988800	3.888200	-11.620000	20.793694	0.000452	20.728733
13.005081	-2.993300	3.886800	-11.633000	20.792697	0.000453	20.727736
14.006563	-3.009200	3.884600	-11.689000	20.822346	0.000452	20.748852
15.003958	-3.007300	3.885000	-11.682000	20.815609	0.000451	20.743537
16.009358	-2.987400	3.882800	-11.598000	20.826046	0.000452	20.759190
17.005358	-2.999700	3.882300	-11.645000	20.832752	0.000451	20.742663
18.008078	-3.005400	3.881000	-11.663000	20.832289	0.000451	20.719912
19.009057	-3.017000	3.880300	-11.705000	20.855442	0.000450	20.732162
20.007808	-2.991900	3.880100	-11.608000	20.878279	0.000449	20.734138
21.009264	-2.982500	3.880300	-11.572000	20.859665	0.000449	20.759146
22.007756	-3.006700	3.878100	-11.660000	20.878013	0.000451	20.729130
23.010469	-3.020000	3.877300	-11.708000	20.890014	0.000450	20.739236
24.007759	-2.993900	3.878200	-11.610000	20.877188	0.000448	20.748695
25.008050	-3.016900	3.875800	-11.692000	20.900647	0.000447	20.741335
26.008959	-3.012700	3.874700	-11.672000	20.916600	0.000449	20.740693
27.012643	-3.010500	3.875300	-11.666000	20.922615	0.000448	20.743865
28.012426	-3.010600	3.875000	-11.666000	20.915325	0.000445	20.742264
29.014043	-3.000400	3.874300	-11.624000	20.932793	0.000446	20.755941
30.011477	-3.010300	3.874300	-11.662000	20.942754	0.000446	20.749782
31.011020	-3.015500	3.873100	-11.678000	20.954390	0.000443	20.733917
32.012520	-3.007600	3.872900	-11.647000	20.947254	0.000446	20.733418
33.009207	-2.998100	3.872200	-11.608000	20.973630	0.000446	20.749368
34.011447	-3.001600	3.872000	-11.621000	20.973477	0.000445	20.742102
35.010458	-2.992200	3.871600	-11.584000	20.982213	0.000447	20.740882
36.010754	-3.008100	3.871600	-11.645000	20.976603	0.000446	20.750919
37.011734	-3.007200	3.871400	-11.642000	21.017467	0.000445	20.739632
38.009746	-2.987000	3.871100	-11.562000	21.011131	0.000444	20.759375
39.017140	-3.007700	3.869500	-11.638000	21.025783	0.000446	20.730406
40.012261	-3.005300	3.869800	-11.629000	21.028855	0.000446	20.748178
41.011973	-3.018300	3.869000	-11.677000	21.041501	0.000447	20.748025
42.011469	-3.001900	3.869900	-11.616000	21.040879	0.000445	20.745506
43.016449	-3.005600	3.867700	-11.624000	21.066853	0.000444	20.754416
44.011559	-2.997200	3.869300	-11.596000	21.058991	0.000444	20.745130
45.020847	-2.980000	3.868300	-11.527000	21.061767	0.000442	20.764976
46.011772	-2.983800	3.866900	-11.536000	21.067376	0.000443	20.740714
47.013635	-3.009700	3.867200	-11.637000	21.102583	0.000443	20.759336
48.030894	-3.031500	3.865200	-11.716000	21.103137	0.000445	20.769847
49.013545	-2.986800	3.867800	-11.551000	21.105057	0.000443	20.764656
50.015330	-2.998300	3.866600	-11.592000	21.124265	0.000443	20.740720
51.014099	-3.010700	3.867300	-11.642000	21.125263	0.000443	20.745037
52.015055	-3.013800	3.864800	-11.647000	21.135291	0.000445	20.752223
53.012136	-3.011900	3.866700	-11.645000	21.146199	0.000444	20.746064
54.012887	-2.985500	3.865100	-11.539000	21.135148	0.000444	20.744020
55.014151	-2.995000	3.865600	-11.575000	21.167879	0.000445	20.757321
56.017102	-3.008300	3.864400	-11.624000	21.180179	0.000442	20.749235
57.012922	-3.023800	3.864800	-11.686000	21.176189	0.000445	20.754254
58.018208	-2.975200	3.866300	-11.502000	21.184820	0.000443	20.759094
59.018404	-2.984700	3.864600	-11.534000	21.189417	0.000442	20.768909
60.016103	-2.995500	3.863100	-11.571000	21.214736	0.000444	20.747769
61.019258	-3.004500	3.862800	-11.605000	21.220350	0.000442	20.758127
62.019657	-3.010800	3.862900	-11.630000	21.223594	0.000443	20.761372
63.017283	-2.995300	3.862900	-11.570000	21.236816	0.000443	20.769857
64.016472	-2.991800	3.862300	-11.554000	21.240454	0.000443	20.755005
65.017684	-2.993600	3.863300	-11.565000	21.238692	0.000443	20.755139
66.019082	-3.002300	3.863100	-11.597000	21.263235	0.000443	20.766889
67.016850	-3.008700	3.862700	-11.621000	21.290675	0.000443	20.762098
68.021175	-2.982400	3.862500	-11.518000	21.277711	0.000442	20.747705
69.017779	-3.000900	3.862000	-11.589000	21.292003	0.000444	20.759634
70.021389	-2.987400	3.861800	-11.535000	21.289209	0.000444	20.763951
71.017057	-2.997500	3.861900	-11.575000	21.297291	0.000445	20.762553
72.023939	-2.987300	3.862000	-11.536000	21.319319	0.000445	20.766573
73.017742	-2.999900	3.861200	-11.583000	21.341994	0.000445	20.763180
74.017529	-2.959700	3.862700	-11.432000	21.336584	0.000443	20.762983
75.022822	-2.990000	3.863300	-11.551000	21.353275	0.000446	20.771622
76.018414	-2.973100	3.862200	-11.482000	21.362852	0.000445	20.750383
77.020486	-2.979300	3.861100	-11.502000	21.363672	0.000446	20.780601
78.017986	-2.991100	3.860800	-11.546000	21.363154	0.000444	20.752107
79.018975	-2.993200	3.859800	-11.552000	21.398495	0.000445	20.768974
80.019541	-3.006300	3.859100	-11.601000	21.386080	0.000445	20.769829
81.019351	-2.987900	3.859700	-11.531000	21.420220	0.000444	20.755624
82.020959	-3.001000	3.859300	-11.580000	21.417234	0.000445	20.759274
83.022918	-2.990900	3.859400	-11.542000	21.423863	0.000444	20.758795
84.020383	-2.995400	3.859700	-11.561000	21.432319	0.000447	20.763937
85.023063	-2.982000	3.859100	-11.506000	21.440154	0.000444	20.776991
86.023977	-3.018200	3.859100	-11.645000	21.424145	0.000446	20.776147
87.021902	-3.013900	3.859300	-11.630000	21.439187	0.000447	20.759428
88.026032	-3.020200	3.857700	-11.650000	21.439888	0.000446	20.761077
89.021183	-3.001900	3.859100	-11.583000	21.436990	0.000448	20.751539
90.023360	-3.021500	3.857100	-11.653000	21.478253	0.000446	20.764851
91.023487	-2.981400	3.860300	-11.508000	21.483238	0.000449	20.776478
92.021463	-2.988400	3.858800	-11.530000	21.491792	0.000447	20.776029
93.027769	-3.023200	3.857000	-11.660000	21.510846	0.000447	20.779446
94.023908	-3.005700	3.858200	-11.596000	21.529677	0.000448	20.776004
95.025383	-3.001200	3.857100	-11.575000	21.527806	0.000446	20.759907
96.024986	-3.003800	3.857200	-11.585000	21.544366	0.000446	20.769840
97.024411	-2.995100	3.856400	-11.549000	21.535166	0.000445	20.776281
98.031448	-2.982700	3.857900	-11.506000	21.565092	0.000449	20.773510
99.026637	-3.002500	3.857700	-11.582000	21.566963	0.000449	20.788184
100.022954	-2.990300	3.856200	-11.531000	21.577288	0.000449	20.752049
101.026125	-3.001200	3.856300	-11.573000	21.583571	0.000448	20.786312
102.025359	-3.011500	3.855900	-11.611000	21.610831	0.000446	20.773762
103.024130	-3.012900	3.855600	-11.616000	21.617593	0.000447	20.784796
104.024289	-2.979400	3.856900	-11.490000	21.597244	0.000450	20.780079
105.024011	-2.997300	3.855200	-11.553000	21.636121	0.000449	20.789113
106.026978	-2.964800	3.856000	-11.430000	21.629513	0.000451	20.785819
107.028004	-3.002900	3.854800	-11.575000	21.605501	0.000451	20.794981
108.025487	-3.002200	3.856100	-11.576000	21.629463	0.000452	20.780553
109.025425	-3.013400	3.854500	-11.614000	21.632509	0.000451	20.768428
110.025028	-3.005900	3.855300	-11.587000	21.655725	0.000452	20.779808
111.026650	-2.994800	3.855700	-11.546000	21.644724	0.000452	20.788239
112.026424	-3.003300	3.854700	-11.576000	21.645973	0.000454	20.771470
113.025887	-3.007800	3.854800	-11.593000	21.678008	0.000451	20.781719
114.026121	-3.007500	3.854200	-11.590000	21.678709	0.000452	20.799490
115.027291	-2.994200	3.855100	-11.542000	21.691679	0.000454	20.790659
116.026980	-3.000500	3.854100	-11.564000	21.714919	0.000453	20.779778
117.028458	-3.032700	3.852900	-11.683000	21.708681	0.000454	20.794872
118.029166	-2.997500	3.854600	-11.553000	21.720402	0.000454	20.793800
119.029747	-2.973500	3.853900	-11.459000	21.708429	0.000454	20.773757
120.029084	-3.010700	3.854000	-11.602000	21.704816	0.000455	20.783418
121.030509	-2.968200	3.854900	-11.441000	21.710472	0.000456	20.794293
122.028433	-2.987800	3.853700	-11.513000	21.734930	0.000455	20.801228
123.029045	-2.996800	3.852400	-11.544000	21.755652	0.000455	20.795414
124.030962	-2.998100	3.853800	-11.553000	21.759067	0.000453	20.795039
125.030932	-2.992800	3.852200	-11.528000	21.779088	0.000456	20.788050
126.034345	-2.974400	3.852500	-11.458000	21.786367	0.000454	20.801499
127.028820	-2.997700	3.851700	-11.545000	21.797910	0.000453	20.779387
128.030830	-3.003000	3.851200	-11.564000	21.807261	0.000454	20.793014
129.034396	-3.013100	3.850500	-11.601000	21.813124	0.000455	20.790821
130.030078	-3.003000	3.850800	-11.564000	21.854388	0.000455	20.788500
131.033298	-2.994100	3.850900	-11.529000	21.849127	0.000455	20.805520
132.032151	-3.006400	3.850800	-11.576000	21.839801	0.000455	20.791917
133.034964	-2.994300	3.852000	-11.533000	21.842046	0.000457	20.795113
134.035879	-2.995500	3.851500	-11.536000	21.851121	0.000456	20.796135
135.031141	-2.999100	3.850100	-11.547000	21.862545	0.000457	20.790026
136.037829	-3.012600	3.850200	-11.598000	21.871447	0.000455	20.795143
137.030961	-3.022600	3.850500	-11.637000	21.876184	0.000457	20.813161
138.031846	-3.010000	3.849500	-11.585000	21.890168	0.000458	20.801080
139.034316	-3.001700	3.849800	-11.555000	21.927995	0.000457	20.812390
140.032821	-3.022000	3.850200	-11.635000	21.928493	0.000457	20.801036
141.032982	-3.020900	3.849300	-11.628000	21.921763	0.000459	20.803782
142.035430	-3.008100	3.850400	-11.581000	21.936220	0.000459	20.808770
143.033620	-2.999800	3.850200	-11.549000	21.942003	0.000461	20.793222
144.031423	-2.985000	3.850000	-11.491000	21.964315	0.000459	20.799435
145.037762	-2.990800	3.849900	-11.513000	21.965988	0.000460	20.814860
146.035990	-2.988400	3.849500	-11.503000	21.959701	0.000459	20.823266
147.038843	-3.000500	3.849100	-11.547000	21.973014	0.000460	20.799134
148.034939	-2.984500	3.849000	-11.486000	21.975155	0.000462	20.808389
149.035467	-3.005500	3.849000	-11.567000	21.980784	0.000461	20.809283
150.039745	-2.997400	3.849000	-11.537000	21.976077	0.000463	20.812632
151.037014	-2.997100	3.847600	-11.531000	21.998009	0.000462	20.823680
152.042561	-2.995500	3.846800	-11.521000	22.006258	0.000462	20.829093
153.039687	-2.994000	3.846600	-11.516000	21.994140	0.000464	20.831661
154.039340	-2.993000	3.848000	-11.517000	22.009815	0.000464	20.810369
155.039176	-3.001700	3.848200	-11.550000	22.011956	0.000464	20.827210
156.040486	-3.007100	3.848200	-11.571000	22.017388	0.000466	20.816527
157.044654	-2.993100	3.847800	-11.516000	22.044331	0.000468	20.830697
158.041607	-3.031700	3.846700	-11.661000	22.070524	0.000464	20.829891
159.039583	-3.005700	3.845300	-11.556000	22.079301	0.000466	20.814971
160.040897	-2.969700	3.847700	-11.425000	22.088664	0.000467	20.823870
161.042589	-3.024000	3.845000	-11.627000	22.104589	0.000467	20.831279
162.042164	-3.005900	3.847300	-11.563000	22.098624	0.000467	20.836212
163.046831	-3.005400	3.845600	-11.557000	22.094110	0.000467	20.821736
164.040734	-2.980900	3.847100	-11.467000	22.106547	0.000467	20.823756
165.039799	-3.014300	3.844400	-11.587000	22.114268	0.000466	20.830062
166.042447	-2.987300	3.845900	-11.488000	22.151628	0.000469	20.837120
167.046825	-2.999300	3.844900	-11.531000	22.126221	0.000467	20.832072
168.043787	-3.010100	3.843700	-11.569000	22.164306	0.000466	20.848864
169.044657	-2.981200	3.844600	-11.461000	22.159091	0.000470	20.817092
170.043680	-2.972500	3.845100	-11.428000	22.160501	0.000470	20.830357
171.040810	-2.987000	3.843600	-11.481000	22.180584	0.000470	20.833868
172.051066	-2.999500	3.845400	-11.533000	22.177545	0.000470	20.834619
173.045325	-3.007900	3.844100	-11.562000	22.180924	0.000470	20.832786
174.047113	-3.005500	3.845200	-11.556000	22.200612	0.000470	20.834480
175.047843	-3.014900	3.843300	-11.585000	22.171619	0.000469	20.862824
176.050822	-3.004500	3.843500	-11.547000	22.192279	0.000469	20.848422
177.050128	-2.997800	3.843200	-11.520000	22.210965	0.000472	20.841527
178.050536	-3.003300	3.843200	-11.541000	22.219588	0.000472	20.842574
179.048792	-2.972000	3.844000	-11.423000	22.219534	0.000471	20.855795
180.051482	-2.985900	3.842700	-11.473000	22.262050	0.000470	20.849054
181.051475	-2.992400	3.842300	-11.497000	22.249289	0.000471	20.847656
182.048122	-3.003300	3.842000	-11.537000	22.267831	0.000472	20.853419
183.052019	-2.994400	3.842900	-11.506000	22.260723	0.000470	20.853888
184.049175	-3.003600	3.842300	-11.539000	22.279610	0.000471	20.845774
185.048726	-3.005300	3.842400	-11.546000	22.283201	0.000471	20.864067
186.049201	-3.006200	3.843000	-11.552000	22.266075	0.000473	20.855454
187.047232	-3.027100	3.839800	-11.622000	22.279556	0.000472	20.856150
188.050827	-2.988400	3.841200	-11.479000	22.288681	0.000475	20.852011
189.049238	-3.014500	3.840800	-11.577000	22.289722	0.000473	20.857320
190.050750	-2.989100	3.840400	-11.478000	22.287951	0.000475	20.872616
191.048032	-2.994500	3.840600	-11.500000	22.306340	0.000473	20.875381
192.049003	-2.997800	3.842200	-11.517000	22.327481	0.000472	20.845344
193.048066	-3.007100	3.839900	-11.545000	22.331160	0.000473	20.863252
194.052565	-2.982600	3.840500	-11.453000	22.309433	0.000475	20.850030
195.050567	-3.026000	3.839000	-11.616000	22.341454	0.000475	20.857439
196.050007	-2.993000	3.841400	-11.496000	22.359995	0.000473	20.862728
197.048938	-3.014300	3.838400	-11.569000	22.342451	0.000476	20.866022
198.050996	-2.983900	3.838500	-11.453000	22.362259	0.000474	20.865943
199.047427	-2.991300	3.839900	-11.486000	22.388449	0.000474	20.860402
200.054649	-3.012100	3.838900	-11.561000	22.419552	0.000477	20.865469
201.051480	-2.996500	3.839600	-11.505000	22.440183	0.000476	20.868111
202.052753	-3.017700	3.837800	-11.580000	22.435779	0.000476	20.851374
203.052838	-2.986300	3.838400	-11.462000	22.428592	0.000475	20.869780
204.057164	-2.995600	3.837900	-11.496000	22.436069	0.000476	20.876793
205.052505	-2.970200	3.838600	-11.400000	22.443492	0.000478	20.847718
206.052434	-3.009400	3.836400	-11.545000	22.463536	0.000479	20.870161
207.054995	-3.010900	3.837100	-11.552000	22.474445	0.000478	20.869232
208.052772	-2.995300	3.837000	-11.492000	22.484062	0.000479	20.865113
209.055819	-3.009300	3.837500	-11.547000	22.495257	0.000478	20.872531
210.054799	-2.964000	3.837400	-11.372000	22.495124	0.000480	20.882828
211.054722	-3.018700	3.835700	-11.578000	22.492382	0.000480	20.869178
212.054462	-2.996500	3.836100	-11.494000	22.525553	0.000480	20.869207
213.053768	-3.021300	3.836300	-11.590000	22.509973	0.000480	20.904810
214.055072	-3.019700	3.836600	-11.584000	22.498610	0.000480	20.871622
215.055793	-2.990300	3.835200	-11.467000	22.540249	0.000481	20.880132
216.052976	-3.017800	3.836400	-11.576000	22.552632	0.000481	20.896326
217.054758	-3.012600	3.835600	-11.553000	22.569379	0.000482	20.883703
218.053843	-3.001400	3.835800	-11.512000	22.576180	0.000482	20.887668
219.057301	-3.006200	3.835300	-11.528000	22.560280	0.000485	20.876487
220.058528	-2.980500	3.835700	-11.431000	22.565789	0.000483	20.889115
221.057869	-2.987100	3.834100	-11.452000	22.576968	0.000483	20.902207
222.061768	-3.013600	3.834200	-11.554000	22.570143	0.000481	20.891579
223.060899	-2.995500	3.835100	-11.487000	22.602754	0.000484	20.874457
224.060581	-3.009300	3.833800	-11.536000	22.609155	0.000485	20.863799
225.059349	-3.011800	3.833500	-11.545000	22.603726	0.000487	20.878748
226.056014	-2.996300	3.834400	-11.488000	22.618470	0.000486	20.885929
227.060342	-3.021300	3.834200	-11.584000	22.602221	0.000488	20.887672
228.057923	-2.996900	3.833300	-11.487000	22.632588	0.000485	20.876837
229.057987	-2.995300	3.832100	-11.477000	22.653362	0.000488	20.878204
230.063739	-2.973400	3.834300	-11.400000	22.626606	0.000490	20.885543
231.061532	-3.019900	3.832500	-11.572000	22.648855	0.000489	20.877009
232.059024	-3.010400	3.832300	-11.536000	22.662924	0.000492	20.848428
233.060754	-3.002500	3.832400	-11.506000	22.655547	0.000488	20.886556
234.061314	-2.998500	3.832800	-11.492000	22.662968	0.000491	20.883083
235.060917	-3.014400	3.831400	-11.549000	22.687282	0.000489	20.857654
236.067887	-3.006900	3.832200	-11.522000	22.681873	0.000493	20.848443
237.066479	-3.012400	3.831400	-11.541000	22.706779	0.000489	20.870544
238.062322	-3.002200	3.832100	-11.504000	22.707321	0.000489	20.884836
239.063097	-2.988200	3.830500	-11.445000	22.725254	0.000491	20.856808
240.060583	-3.009900	3.829700	-11.526000	22.731630	0.000490	20.874573
241.063510	-3.005400	3.830300	-11.510000	22.735761	0.000489	20.846471
242.063772	-2.993100	3.830900	-11.465000	22.735130	0.000490	20.861011
243.062534	-3.012300	3.831400	-11.541000	22.726758	0.000492	20.854521
244.061854	-2.998700	3.830500	-11.485000	22.748201	0.000492	20.860828
245.062730	-3.001100	3.828800	-11.490000	22.746007	0.000492	20.864794
246.061279	-2.996400	3.828200	-11.470000	22.765305	0.000492	20.852832
247.067096	-3.006300	3.830000	-11.513000	22.734937	0.000492	20.863663
248.062179	-3.016700	3.829200	-11.551000	22.719686	0.000491	20.857395
249.063565	-3.001000	3.828500	-11.488000	22.710288	0.000493	20.856042
250.069459	-3.007100	3.827800	-11.509000	22.724834	0.000494	20.844534
251.066422	-3.019300	3.827700	-11.556000	22.717157	0.000493	20.855809
252.066637	-3.011200	3.827800	-11.525000	22.733541	0.000493	20.850411
253.065129	-2.994600	3.828600	-11.464000	22.759896	0.000494	20.885817
254.065409	-2.984400	3.828700	-11.426000	22.756257	0.000493	20.868423
255.067677	-2.999600	3.827400	-11.480000	22.761863	0.000496	20.866926
256.069095	-3.022500	3.827000	-11.566000	22.795662	0.000493	20.855740
257.065719	-2.983600	3.827000	-11.416000	22.806824	0.000494	20.853646
258.067777	-3.011100	3.826100	-11.520000	22.794863	0.000494	20.847354
259.068801	-3.004600	3.826700	-11.496000	22.803131	0.000495	20.857533
260.068162	-3.006300	3.825900	-11.501000	22.796554	0.000495	20.849996
261.067060	-3.012400	3.825600	-11.523000	22.800513	0.000496	20.858703
262.071837	-3.010600	3.826000	-11.518000	22.839394	0.000494	20.865410
263.072011	-3.004600	3.825900	-11.495000	22.877208	0.000497	20.848292
264.067586	-3.002300	3.824900	-11.483000	22.870060	0.000496	20.850139
265.065697	-3.006900	3.825800	-11.503000	22.870809	0.000497	20.840933
266.068947	-2.984000	3.826700	-11.418000	22.871051	0.000497	20.845916
267.067255	-2.990700	3.824200	-11.435000	22.873816	0.000496	20.849161
268.069961	-2.971200	3.825900	-11.367000	22.874512	0.000496	20.831366
269.068099	-2.985000	3.824600	-11.415000	22.868329	0.000498	20.852672
270.067819	-2.989500	3.825100	-11.434000	22.906148	0.000499	20.843145
271.068610	-2.993500	3.823900	-11.446000	22.916555	0.000498	20.848356
272.066779	-2.985100	3.824800	-11.417000	22.926893	0.000498	20.827894
