LabVIEW Measurement	
Writer_Version	2
Reader_Version	2
Separator	Tab
Decimal_Separator	.
Multi_Headings	No
X_Columns	One
Time_Pref	Absolute
Operator	admin
Description	Clolumns are: time, Current, Voltage, Power, Battery Temp, and Chamber Temp
Date	2024/08/16
Time	13:07:17.8513970375061035156
***End_of_Header***	
	
Channels	6						
Samples	1	1	1	1	1	1	
Date	2024/08/26	2024/08/26	2024/08/26	2024/08/26	2024/08/26	2024/08/26	
Time	10:32:15.7610607147216796875	10:32:15.7690720558166503906	10:32:15.7762479782104492188	10:32:15.7385582923889160156	10:32:15.7385582923889160156	10:32:15.7385582923889160156	
X_Dimension	Time	Time	Time	Time	Time	Time	
X0	0.0000000000000000E+0	0.0000000000000000E+0	0.0000000000000000E+0	0.0000000000000000E+0	0.0000000000000000E+0	0.0000000000000000E+0	
Delta_X	1.000000	1.000000	1.000000	1.000000	1.000000	1.000000	
***End_of_Header***							
X_Value	Untitled	Untitled 1	Untitled 2	Untitled 3	Untitled 4	Untitled 5	Comment
0.000000	-0.003960	4.089400	-0.016073	20.818635	0.000452	20.785444
1.002869	-2.982100	3.931100	-11.722000	20.828819	0.000451	20.797525
2.008831	-2.989400	3.925800	-11.735000	20.828913	0.000450	20.772015
3.001799	-2.993400	3.920400	-11.735000	20.870963	0.000448	20.787988
4.008273	-3.013400	3.917700	-11.805000	20.854245	0.000449	20.778855
5.001242	-3.008900	3.915400	-11.780000	20.847290	0.000449	20.779487
6.007750	-2.991400	3.912900	-11.704000	20.860437	0.000448	20.786471
7.008546	-3.003600	3.909300	-11.741000	20.874360	0.000448	20.786170
8.004561	-2.995800	3.909200	-11.710000	20.864078	0.000446	20.774939
9.007873	-2.978300	3.906600	-11.634000	20.871536	0.000447	20.797096
10.010355	-3.003500	3.904200	-11.725000	20.890653	0.000445	20.788714
11.009675	-2.993600	3.903900	-11.686000	20.881171	0.000445	20.763109
12.010894	-3.013900	3.901800	-11.759000	20.878425	0.000445	20.789761
13.018011	-3.014700	3.900800	-11.759000	20.879575	0.000443	20.774316
14.008986	-3.014000	3.898800	-11.749000	20.891853	0.000441	20.779008
15.012110	-3.009400	3.899200	-11.733000	20.928162	0.000442	20.784500
16.014767	-3.012300	3.898100	-11.741000	20.900392	0.000441	20.772374
17.014687	-3.028600	3.895100	-11.796000	20.912343	0.000442	20.752084
18.010479	-3.015400	3.895900	-11.747000	20.927391	0.000442	20.752435
19.003129	-2.988400	3.895000	-11.639000	20.930833	0.000441	20.773896
20.009723	-2.998000	3.896600	-11.681000	20.932206	0.000441	20.755828
21.008160	-3.021600	3.894100	-11.765000	20.948251	0.000439	20.770453
22.008807	-2.989100	3.894400	-11.639000	20.960074	0.000440	20.789390
23.008466	-3.005900	3.892800	-11.701000	20.954563	0.000440	20.769653
24.023584	-2.996800	3.891900	-11.662000	20.977892	0.000440	20.774019
25.009678	-2.998800	3.892100	-11.670000	20.961377	0.000439	20.763666
26.010937	-2.988700	3.890300	-11.626000	20.966365	0.000437	20.770552
27.023127	-2.992200	3.889100	-11.636000	20.975353	0.000438	20.779541
28.011040	-2.986600	3.889200	-11.614000	20.993714	0.000439	20.774197
29.014087	-3.006400	3.888400	-11.689000	21.000919	0.000437	20.755799
30.013460	-2.988300	3.889300	-11.622000	20.998380	0.000439	20.773175
31.023067	-2.993000	3.888000	-11.636000	21.031837	0.000436	20.783878
32.008256	-3.012600	3.886900	-11.709000	21.019161	0.000437	20.769777
33.020432	-3.001000	3.888100	-11.668000	21.020657	0.000435	20.763213
34.009115	-2.990500	3.886300	-11.621000	21.026869	0.000436	20.759943
35.007208	-3.000700	3.885800	-11.659000	21.061850	0.000435	20.755576
36.017534	-3.005100	3.884800	-11.673000	21.051619	0.000435	20.774267
37.005987	-3.015600	3.884400	-11.713000	21.063643	0.000435	20.767327
38.015915	-2.997500	3.885500	-11.646000	21.079035	0.000437	20.761386
39.021398	-3.003600	3.885300	-11.669000	21.070976	0.000435	20.768972
40.011541	-3.015300	3.885200	-11.713000	21.099167	0.000435	20.763505
41.013347	-2.979800	3.884100	-11.573000	21.109373	0.000435	20.764705
42.028013	-3.009900	3.884800	-11.692000	21.094303	0.000435	20.725921
43.016234	-3.018000	3.883000	-11.718000	21.108672	0.000434	20.769694
44.020548	-3.014400	3.883200	-11.704000	21.113852	0.000435	20.745003
45.013523	-2.992000	3.883300	-11.618000	21.130093	0.000437	20.751291
46.014329	-3.003900	3.881700	-11.659000	21.134211	0.000436	20.746875
47.018163	-2.998400	3.881900	-11.638000	21.125353	0.000435	20.744653
48.017621	-3.012300	3.880600	-11.688000	21.165515	0.000435	20.766810
49.023981	-3.011300	3.881400	-11.687000	21.160899	0.000433	20.740855
50.019391	-3.002300	3.881700	-11.653000	21.180160	0.000436	20.762968
51.017481	-3.010200	3.880200	-11.680000	21.163516	0.000434	20.762440
52.014846	-2.996800	3.880700	-11.628000	21.181178	0.000431	20.767305
53.021216	-2.998000	3.880800	-11.634000	21.176462	0.000434	20.764959
54.014551	-2.990400	3.880800	-11.604000	21.192974	0.000433	20.760613
55.021312	-3.004100	3.879700	-11.654000	21.202626	0.000435	20.773588
56.023226	-2.962400	3.880400	-11.494000	21.215849	0.000434	20.755995
57.013534	-3.007800	3.879000	-11.667000	21.213227	0.000432	20.763804
58.012422	-3.029500	3.879000	-11.750000	21.227570	0.000434	20.769143
59.014018	-2.992700	3.878500	-11.606000	21.233130	0.000434	20.741513
60.019359	-2.995500	3.878900	-11.618000	21.237025	0.000433	20.728340
61.018865	-3.007600	3.879500	-11.667000	21.258201	0.000433	20.756163
62.019001	-3.001800	3.878800	-11.643000	21.266233	0.000432	20.757087
63.012573	-3.007700	3.877000	-11.659000	21.278507	0.000433	20.740915
64.020925	-2.995700	3.878900	-11.619000	21.288983	0.000432	20.764199
65.021111	-3.013200	3.876800	-11.680000	21.280300	0.000432	20.736544
66.018120	-2.985800	3.876500	-11.573000	21.301558	0.000432	20.752123
67.017341	-2.991100	3.876900	-11.595000	21.308963	0.000432	20.742936
68.013440	-2.996900	3.876900	-11.617000	21.331115	0.000432	20.742338
69.020053	-2.987900	3.876400	-11.581000	21.324505	0.000432	20.763226
70.017304	-2.971900	3.877800	-11.524000	21.342662	0.000432	20.751046
71.016938	-2.974800	3.876400	-11.531000	21.351366	0.000434	20.738891
72.014474	-2.996000	3.875300	-11.609000	21.350769	0.000431	20.751570
73.024535	-3.000300	3.877500	-11.632000	21.352062	0.000433	20.725836
74.017551	-2.966500	3.875400	-11.495000	21.356283	0.000432	20.740491
75.022859	-2.987200	3.875800	-11.577000	21.375615	0.000433	20.733279
76.016760	-2.988100	3.875200	-11.578000	21.386189	0.000433	20.718728
77.016897	-3.001600	3.874600	-11.629000	21.380152	0.000432	20.764846
78.022434	-2.989400	3.875300	-11.584000	21.379979	0.000432	20.733378
79.023928	-2.991200	3.874700	-11.590000	21.392853	0.000434	20.743889
80.019604	-2.981800	3.874500	-11.553000	21.407766	0.000433	20.740792
81.025169	-2.999600	3.875600	-11.624000	21.419540	0.000433	20.728389
82.022754	-3.000400	3.873900	-11.623000	21.439616	0.000432	20.745158
83.018416	-2.977300	3.875600	-11.538000	21.434877	0.000433	20.722398
84.024032	-2.985900	3.875500	-11.570000	21.425202	0.000434	20.727890
85.019800	-2.997500	3.874800	-11.614000	21.463789	0.000432	20.741369
86.016615	-2.980000	3.874800	-11.546000	21.457426	0.000435	20.735477
87.024443	-3.001100	3.873800	-11.624000	21.472768	0.000435	20.743715
88.021551	-2.995500	3.873500	-11.603000	21.489403	0.000433	20.725272
89.021499	-3.006800	3.873600	-11.647000	21.490306	0.000433	20.733288
90.020245	-2.982000	3.874500	-11.553000	21.478356	0.000433	20.738875
91.023587	-2.981400	3.874400	-11.550000	21.507612	0.000433	20.727845
92.021599	-2.996100	3.873900	-11.606000	21.504394	0.000434	20.750230
93.022568	-3.015000	3.870900	-11.670000	21.512079	0.000433	20.741799
94.023399	-3.003200	3.871200	-11.624000	21.535648	0.000435	20.738356
95.020494	-3.006300	3.872400	-11.640000	21.525347	0.000435	20.744169
96.028377	-3.003100	3.871500	-11.626000	21.528738	0.000433	20.705361
97.025549	-3.009100	3.872400	-11.651000	21.539014	0.000433	20.730344
98.025039	-2.989200	3.872000	-11.574000	21.525549	0.000436	20.727775
99.027039	-3.011500	3.871900	-11.659000	21.545727	0.000434	20.720465
100.028375	-2.991100	3.872000	-11.580000	21.564058	0.000434	20.736439
101.028229	-2.979800	3.871900	-11.537000	21.574433	0.000434	20.714577
102.024736	-3.018400	3.870800	-11.683000	21.583757	0.000435	20.732443
103.026017	-3.013500	3.871800	-11.667000	21.598125	0.000434	20.732122
104.027332	-3.005500	3.869800	-11.630000	21.605538	0.000434	20.726263
105.036147	-2.994700	3.871700	-11.593000	21.595682	0.000434	20.724935
106.030207	-2.998400	3.870400	-11.604000	21.612245	0.000438	20.730131
107.033812	-3.003500	3.870500	-11.624000	21.629125	0.000437	20.704347
108.039110	-3.015700	3.869600	-11.669000	21.617354	0.000436	20.733346
109.023571	-2.992900	3.869700	-11.581000	21.643241	0.000437	20.699506
110.025105	-3.009100	3.869600	-11.644000	21.653018	0.000436	20.703127
111.027026	-2.993500	3.869800	-11.583000	21.658102	0.000435	20.703947
112.028241	-3.007500	3.869800	-11.638000	21.670894	0.000438	20.698731
113.023803	-3.010200	3.868600	-11.645000	21.681865	0.000437	20.726308
114.031607	-3.013500	3.870400	-11.661000	21.676959	0.000437	20.711440
115.024298	-2.994900	3.868500	-11.585000	21.675484	0.000436	20.732250
116.030084	-3.003200	3.869400	-11.620000	21.685355	0.000440	20.732171
117.034714	-3.001300	3.869000	-11.611000	21.680498	0.000440	20.734423
118.037804	-3.004100	3.868100	-11.619000	21.716555	0.000440	20.720247
119.029978	-2.981900	3.868400	-11.534000	21.694435	0.000442	20.714705
120.032320	-2.981600	3.867800	-11.532000	21.698448	0.000437	20.708763
121.035763	-3.001000	3.867800	-11.606000	21.706329	0.000439	20.725186
122.026798	-3.015600	3.868100	-11.663000	21.726277	0.000440	20.716226
123.036247	-3.002600	3.866300	-11.607000	21.732515	0.000438	20.712512
124.026667	-3.009300	3.867600	-11.637000	21.741961	0.000440	20.712957
125.032346	-3.011700	3.866500	-11.644000	21.731489	0.000441	20.705794
126.046651	-3.014900	3.867800	-11.660000	21.779812	0.000440	20.721442
127.035049	-2.987700	3.867500	-11.554000	21.772657	0.000438	20.704796
128.034109	-2.988100	3.868000	-11.557000	21.779689	0.000440	20.713258
129.030315	-3.013900	3.866500	-11.652000	21.785695	0.000440	20.713105
130.043876	-2.978400	3.866900	-11.516000	21.814420	0.000442	20.708190
131.032481	-2.969600	3.867900	-11.485000	21.768141	0.000441	20.715451
132.032173	-2.989400	3.865900	-11.556000	21.815343	0.000442	20.732349
133.033758	-3.012100	3.864900	-11.640000	21.797090	0.000440	20.734942
134.030770	-3.012600	3.865100	-11.643000	21.817238	0.000440	20.698681
135.030178	-2.993100	3.866500	-11.571000	21.835260	0.000442	20.700598
136.036075	-2.968800	3.867200	-11.479000	21.847029	0.000442	20.728975
137.036014	-2.985800	3.865400	-11.540000	21.838004	0.000443	20.706664
138.036936	-3.008900	3.866000	-11.632000	21.860619	0.000442	20.703221
139.035487	-3.009900	3.865600	-11.634000	21.856952	0.000444	20.715199
140.038006	-3.009500	3.865500	-11.632000	21.872610	0.000443	20.724708
141.035007	-2.997400	3.865300	-11.585000	21.880964	0.000444	20.724061
142.036603	-3.006600	3.864500	-11.619000	21.895401	0.000446	20.708165
143.036253	-2.996200	3.863800	-11.575000	21.885231	0.000444	20.699881
144.045492	-3.009400	3.864500	-11.629000	21.881812	0.000446	20.713530
145.033690	-3.001700	3.864300	-11.599000	21.898367	0.000444	20.709237
146.048216	-3.007200	3.862700	-11.616000	21.894977	0.000445	20.723389
147.051189	-2.993400	3.863200	-11.562000	21.896674	0.000444	20.706594
148.037757	-3.009000	3.863200	-11.624000	21.909460	0.000446	20.700425
149.037267	-2.992300	3.864600	-11.563000	21.936267	0.000446	20.715406
150.037111	-3.011900	3.862900	-11.633000	21.947335	0.000447	20.701353
151.039917	-2.982200	3.864300	-11.523000	21.954736	0.000445	20.715876
152.041004	-3.000500	3.863100	-11.590000	21.952496	0.000447	20.726910
153.039786	-2.994400	3.862600	-11.564000	21.976455	0.000448	20.701580
154.034966	-2.986200	3.863100	-11.534000	21.991988	0.000447	20.711914
155.059036	-3.001700	3.862200	-11.593000	21.990744	0.000447	20.741016
156.036983	-3.037100	3.861900	-11.727000	21.977481	0.000447	20.708772
157.046110	-3.014300	3.862700	-11.643000	21.981320	0.000447	20.721624
158.040613	-3.014300	3.861800	-11.640000	21.990695	0.000449	20.711568
159.043182	-2.965600	3.861500	-11.451000	21.992293	0.000450	20.716013
160.039725	-3.009300	3.861700	-11.620000	21.982020	0.000449	20.695297
161.055796	-3.015900	3.862000	-11.647000	22.020214	0.000451	20.710298
162.041075	-3.011700	3.861600	-11.629000	22.012063	0.000450	20.717786
163.037613	-3.011800	3.861000	-11.628000	22.013089	0.000450	20.723081
164.049026	-3.000700	3.861700	-11.586000	22.021491	0.000453	20.691186
165.039689	-3.000000	3.859800	-11.578000	22.030890	0.000452	20.716719
166.048583	-3.012400	3.861000	-11.630000	22.038468	0.000453	20.707235
167.056867	-3.007500	3.860900	-11.611000	22.061578	0.000451	20.711878
168.041220	-3.004700	3.860900	-11.600000	22.088027	0.000452	20.699000
169.043787	-3.014200	3.859100	-11.632000	22.089971	0.000451	20.697627
170.038349	-2.984900	3.859500	-11.520000	22.076009	0.000455	20.694555
171.041618	-2.995900	3.859600	-11.562000	22.081544	0.000453	20.699623
172.038380	-2.994300	3.860000	-11.558000	22.083789	0.000453	20.715148
173.040999	-3.009300	3.859300	-11.613000	22.092018	0.000453	20.707738
174.040040	-3.005000	3.859000	-11.595000	22.091392	0.000454	20.730346
175.040039	-3.013800	3.857800	-11.626000	22.093434	0.000454	20.715795
176.062248	-2.995100	3.859400	-11.559000	22.124322	0.000454	20.713053
177.046371	-3.004300	3.858200	-11.590000	22.126587	0.000455	20.713424
178.046987	-3.013400	3.857500	-11.623000	22.130026	0.000456	20.712125
179.046427	-3.006200	3.858500	-11.598000	22.168457	0.000458	20.718833
180.062366	-3.013400	3.858400	-11.626000	22.169256	0.000456	20.706830
181.048316	-2.978400	3.858500	-11.491000	22.169161	0.000457	20.714323
182.044698	-2.997300	3.858400	-11.563000	22.154179	0.000456	20.716867
183.043943	-2.999800	3.856900	-11.569000	22.142084	0.000456	20.737000
184.047906	-3.013600	3.858000	-11.626000	22.149241	0.000458	20.710974
185.046520	-3.001900	3.857200	-11.578000	22.160006	0.000458	20.719382
186.044358	-2.987700	3.856400	-11.521000	22.181219	0.000458	20.731137
187.051326	-2.997000	3.855800	-11.554000	22.181968	0.000458	20.719085
188.058901	-3.000700	3.857000	-11.572000	22.209683	0.000459	20.719332
189.048507	-2.980500	3.856100	-11.492000	22.228572	0.000459	20.714062
190.046284	-2.996200	3.856900	-11.556000	22.219396	0.000461	20.741387
191.049758	-2.987600	3.856700	-11.521000	22.217980	0.000460	20.738072
192.045270	-3.006700	3.856300	-11.593000	22.235424	0.000458	20.719027
193.048041	-2.974800	3.857100	-11.474000	22.245290	0.000460	20.724164
194.046098	-3.025300	3.854000	-11.658000	22.252422	0.000462	20.746005
195.048268	-2.981300	3.854600	-11.491000	22.279044	0.000462	20.723348
196.048436	-2.992200	3.856200	-11.537000	22.272385	0.000460	20.721422
197.053343	-2.994400	3.855600	-11.544000	22.282927	0.000463	20.716804
198.051558	-2.993300	3.854700	-11.538000	22.258751	0.000461	20.718676
199.046225	-3.008900	3.853700	-11.594000	22.260724	0.000462	20.720177
200.049377	-2.997900	3.855100	-11.556000	22.266279	0.000463	20.736171
201.057178	-3.010500	3.854400	-11.602000	22.295263	0.000465	20.731054
202.047454	-3.003800	3.853500	-11.574000	22.285023	0.000464	20.717006
203.051310	-2.999400	3.853000	-11.556000	22.304936	0.000465	20.726515
204.046456	-3.007500	3.854200	-11.590000	22.293793	0.000464	20.731953
205.056417	-3.013800	3.852800	-11.611000	22.322852	0.000464	20.729755
206.052378	-3.009300	3.851800	-11.591000	22.341718	0.000464	20.727784
207.051749	-2.970600	3.854100	-11.448000	22.357867	0.000463	20.730679
208.049349	-2.999500	3.854000	-11.559000	22.355199	0.000464	20.727058
209.055449	-3.003500	3.850900	-11.566000	22.372023	0.000466	20.749596
210.053102	-3.010300	3.853300	-11.598000	22.376877	0.000465	20.727903
211.052909	-3.013700	3.851600	-11.607000	22.382460	0.000466	20.726856
212.053239	-3.004600	3.852600	-11.574000	22.384433	0.000466	20.721719
213.052373	-3.010200	3.851100	-11.592000	22.373517	0.000467	20.729755
214.058408	-2.995800	3.851600	-11.537000	22.390164	0.000467	20.716552
215.052271	-2.996800	3.851600	-11.541000	22.385429	0.000468	20.739787
216.059446	-2.999300	3.850200	-11.547000	22.394998	0.000470	20.716177
217.057928	-2.986600	3.852600	-11.505000	22.404241	0.000468	20.730650
218.056894	-3.003000	3.851200	-11.564000	22.398485	0.000468	20.737688
219.054888	-3.003100	3.850000	-11.561000	22.408029	0.000464	20.757203
220.053890	-3.019100	3.849800	-11.622000	22.408206	0.000467	20.728456
221.056516	-3.002400	3.851600	-11.563000	22.454306	0.000470	20.746174
222.054182	-3.009300	3.850200	-11.585000	22.454257	0.000470	20.729054
223.055977	-3.002900	3.850200	-11.561000	22.456052	0.000469	20.746974
224.063994	-3.008200	3.849100	-11.578000	22.485283	0.000471	20.745428
225.058628	-3.007900	3.847900	-11.573000	22.497992	0.000470	20.747725
226.061594	-3.009200	3.850100	-11.585000	22.470507	0.000470	20.737742
227.058150	-3.004100	3.848500	-11.560000	22.503003	0.000471	20.740888
228.055326	-2.988600	3.850700	-11.506000	22.523430	0.000469	20.732897
229.054237	-3.003200	3.848400	-11.556000	22.517955	0.000472	20.740216
230.059486	-3.013400	3.848000	-11.595000	22.502855	0.000471	20.736947
231.065167	-2.986800	3.849900	-11.498000	22.513522	0.000471	20.748104
232.059523	-3.011800	3.847600	-11.586000	22.530891	0.000472	20.755543
233.055955	-2.992900	3.849200	-11.520000	22.527400	0.000472	20.760107
234.057804	-2.990900	3.847800	-11.508000	22.503505	0.000473	20.771739
235.072114	-3.018000	3.847900	-11.612000	22.524568	0.000473	20.743994
236.058259	-3.003100	3.847200	-11.553000	22.548260	0.000474	20.760610
237.065191	-3.003000	3.847500	-11.552000	22.553447	0.000475	20.764858
238.061357	-3.001200	3.847200	-11.545000	22.550755	0.000475	20.745091
239.070326	-3.005200	3.846200	-11.558000	22.563833	0.000475	20.751552
240.065282	-3.015600	3.847000	-11.599000	22.566008	0.000477	20.753255
241.065213	-3.002400	3.846100	-11.547000	22.570268	0.000478	20.770799
242.059514	-3.004600	3.845600	-11.553000	22.542188	0.000476	20.757848
243.061805	-2.993900	3.846200	-11.513000	22.574706	0.000477	20.751536
244.067539	-2.992900	3.845500	-11.508000	22.584451	0.000475	20.746122
245.064456	-3.002900	3.845300	-11.545000	22.591729	0.000479	20.747248
246.067929	-3.001900	3.845600	-11.542000	22.665500	0.000479	20.776094
247.063159	-2.996600	3.844500	-11.520000	22.644947	0.000478	20.774473
248.063516	-3.002700	3.846000	-11.547000	22.654913	0.000477	20.769282
249.065575	-3.016300	3.844700	-11.596000	22.642560	0.000479	20.765918
250.067151	-2.990400	3.843800	-11.493000	22.689844	0.000478	20.765390
251.069771	-2.991100	3.844800	-11.499000	22.644276	0.000478	20.777595
252.073575	-3.001300	3.844900	-11.538000	22.669040	0.000479	20.759251
253.063927	-3.015600	3.843300	-11.589000	22.659149	0.000480	20.773051
254.069201	-3.006500	3.844000	-11.556000	22.681826	0.000482	20.767316
255.066827	-3.007600	3.843900	-11.559000	22.697492	0.000481	20.756455
256.067691	-2.991100	3.842800	-11.493000	22.714262	0.000482	20.750493
257.067268	-3.009200	3.841800	-11.559000	22.722190	0.000482	20.773608
258.069973	-2.988800	3.843500	-11.487000	22.730430	0.000482	20.779017
259.070391	-2.993700	3.842800	-11.504000	22.729636	0.000482	20.765894
260.064896	-3.014800	3.841300	-11.580000	22.728640	0.000483	20.768215
261.066580	-2.989300	3.843100	-11.487000	22.729360	0.000483	20.756608
262.065372	-2.960800	3.843400	-11.379000	22.742791	0.000483	20.764846
263.072568	-3.015500	3.841900	-11.584000	22.740424	0.000482	20.743034
264.066295	-3.002600	3.840700	-11.531000	22.754723	0.000483	20.780593
265.067926	-2.999400	3.843400	-11.526000	22.776299	0.000483	20.769963
266.070022	-3.016700	3.839600	-11.582000	22.770747	0.000484	20.763927
267.064269	-3.013500	3.840100	-11.571000	22.771146	0.000482	20.771914
268.067204	-2.986000	3.841400	-11.470000	22.760087	0.000484	20.792604
269.063420	-3.006100	3.840500	-11.544000	22.739383	0.000486	20.761433
270.068677	-3.006700	3.840400	-11.545000	22.745339	0.000485	20.784469
271.076839	-2.988900	3.840500	-11.479000	22.769183	0.000487	20.775637
272.077569	-2.994000	3.840000	-11.496000	22.777856	0.000485	20.765833
