LabVIEW Measurement	
Writer_Version	2
Reader_Version	2
Separator	Tab
Decimal_Separator	.
Multi_Headings	No
X_Columns	One
Time_Pref	Absolute
Operator	admin
Description	Clolumns are: time, Current, Voltage, Power, Battery Temp, and Chamber Temp
Date	2024/08/16
Time	13:07:17.8513970375061035156
***End_of_Header***	
	
Channels	6						
Samples	1	1	1	1	1	1	
Date	2024/09/13	2024/09/13	2024/09/13	2024/09/13	2024/09/13	2024/09/13	
Time	06:08:35.9533152580261230469	06:08:35.9613137245178222656	06:08:35.9682450294494628906	06:08:35.9367265701293945313	06:08:35.9367265701293945313	06:08:35.9367265701293945313	
X_Dimension	Time	Time	Time	Time	Time	Time	
X0	0.0000000000000000E+0	0.0000000000000000E+0	0.0000000000000000E+0	0.0000000000000000E+0	0.0000000000000000E+0	0.0000000000000000E+0	
Delta_X	1.000000	1.000000	1.000000	1.000000	1.000000	1.000000	
***End_of_Header***							
X_Value	Untitled	Untitled 1	Untitled 2	Untitled 3	Untitled 4	Untitled 5	Comment
0.000000	0.010892	4.085100	0.044502	20.727984	0.000457	20.837040
1.001951	-2.992300	3.916400	-11.718000	20.716431	0.000456	20.807945
2.001583	-3.022900	3.910800	-11.821000	20.765295	0.000457	20.794693
3.001811	-3.011700	3.907400	-11.767000	20.729880	0.000458	20.801954
4.001818	-3.007600	3.903500	-11.740000	20.740140	0.000455	20.795143
5.000958	-3.013000	3.899500	-11.747000	20.753995	0.000456	20.806627
6.003206	-2.991800	3.898000	-11.661000	20.774655	0.000455	20.800260
7.001268	-3.003400	3.896700	-11.703000	20.760080	0.000452	20.791848
8.001741	-3.010300	3.894000	-11.721000	20.767825	0.000452	20.805284
9.003346	-3.003200	3.891600	-11.687000	20.773959	0.000452	20.813788
10.002397	-3.000900	3.891200	-11.676000	20.766329	0.000451	20.782450
11.004863	-2.999800	3.889700	-11.666000	20.764235	0.000451	20.824926
12.004327	-2.999300	3.888200	-11.661000	20.786698	0.000450	20.797604
13.002398	-2.972900	3.887000	-11.555000	20.806342	0.000448	20.784056
14.003979	-2.987900	3.884700	-11.606000	20.803349	0.000451	20.785805
15.003716	-2.993700	3.885900	-11.632000	20.784363	0.000450	20.796217
16.001865	-3.002200	3.883600	-11.659000	20.818976	0.000446	20.780096
17.004444	-2.993700	3.880900	-11.617000	20.832899	0.000450	20.773156
18.009498	-2.994400	3.881400	-11.622000	20.827560	0.000449	20.799111
19.006669	-2.985900	3.881200	-11.588000	20.818508	0.000449	20.788636
20.006381	-2.970500	3.881100	-11.528000	20.833360	0.000447	20.783100
21.012085	-3.027500	3.877200	-11.737000	20.868292	0.000447	20.793852
22.010445	-2.995500	3.879300	-11.620000	20.855877	0.000446	20.778117
23.006708	-3.003200	3.876700	-11.642000	20.892379	0.000445	20.772896
24.007812	-2.982400	3.877800	-11.564000	20.884437	0.000446	20.770643
25.008760	-3.015600	3.875400	-11.686000	20.897827	0.000445	20.784983
26.006183	-3.010600	3.875800	-11.668000	20.895752	0.000443	20.763941
27.008759	-2.979500	3.876200	-11.548000	20.908455	0.000444	20.772852
28.008525	-3.018100	3.873600	-11.690000	20.904865	0.000443	20.777796
29.007890	-3.020400	3.872400	-11.696000	20.932787	0.000443	20.771109
30.008899	-3.000100	3.874100	-11.622000	20.934930	0.000445	20.770407
31.008366	-2.994800	3.873600	-11.600000	20.933040	0.000445	20.771835
32.007808	-2.997200	3.872500	-11.606000	20.957125	0.000442	20.781699
33.011185	-2.983200	3.872200	-11.551000	20.947786	0.000443	20.772359
34.007256	-3.013800	3.872400	-11.669000	20.947939	0.000443	20.772512
35.007757	-2.993300	3.871200	-11.587000	20.969797	0.000443	20.784415
36.009345	-2.980600	3.871000	-11.537000	20.981303	0.000442	20.776484
37.012430	-2.990900	3.870200	-11.574000	20.976015	0.000442	20.779729
38.008412	-2.992300	3.871300	-11.583000	20.997230	0.000442	20.764438
39.012579	-3.004900	3.869400	-11.626000	21.011077	0.000442	20.768330
40.009782	-2.994700	3.871100	-11.592000	21.000845	0.000440	20.766630
41.008868	-3.002400	3.870200	-11.618000	21.024271	0.000443	20.778682
42.012379	-3.000600	3.867800	-11.604000	21.021082	0.000441	20.764586
43.012519	-3.015400	3.867500	-11.660000	21.021309	0.000443	20.769555
44.011667	-2.973300	3.868600	-11.502000	21.035229	0.000441	20.757873
45.012967	-2.976800	3.867600	-11.512000	21.063949	0.000444	20.777117
46.015616	-2.999100	3.868000	-11.600000	21.058888	0.000442	20.755933
47.011748	-2.988200	3.867800	-11.557000	21.064453	0.000442	20.779518
48.015305	-2.982100	3.868700	-11.536000	21.093019	0.000441	20.769210
49.014365	-3.015500	3.867100	-11.661000	21.084566	0.000442	20.764073
50.011609	-2.993500	3.867300	-11.576000	21.112484	0.000441	20.784413
51.015252	-3.007600	3.866800	-11.628000	21.119674	0.000442	20.766474
52.014407	-3.004200	3.865400	-11.611000	21.125639	0.000442	20.764380
53.011998	-3.014800	3.866400	-11.655000	21.147838	0.000440	20.766672
54.016844	-3.002000	3.865500	-11.603000	21.133865	0.000440	20.769763
55.017800	-2.997000	3.865300	-11.584000	21.136363	0.000441	20.745235
56.013601	-2.983300	3.866200	-11.533000	21.180772	0.000442	20.763580
57.020697	-2.980300	3.865000	-11.518000	21.155773	0.000440	20.753272
58.013560	-2.991100	3.864900	-11.559000	21.174309	0.000442	20.765649
59.016977	-2.997000	3.863900	-11.580000	21.166182	0.000440	20.777435
60.015244	-2.993600	3.862600	-11.562000	21.177756	0.000441	20.746337
61.019044	-3.010200	3.864100	-11.630000	21.165037	0.000440	20.748788
62.017522	-3.008300	3.863100	-11.621000	21.195041	0.000440	20.760310
63.014781	-2.981500	3.865300	-11.524000	21.228004	0.000442	20.756300
64.018095	-2.993600	3.863800	-11.565000	21.229198	0.000440	20.747538
65.014885	-3.010200	3.862500	-11.626000	21.227105	0.000442	20.760617
66.014271	-2.989700	3.863100	-11.548000	21.262554	0.000441	20.763364
67.013402	-2.995600	3.862500	-11.570000	21.229648	0.000438	20.745142
68.015294	-3.019300	3.861200	-11.656000	21.246212	0.000442	20.756972
69.016000	-3.011700	3.861300	-11.628000	21.256122	0.000441	20.745074
70.015269	-3.010100	3.860500	-11.619000	21.276680	0.000440	20.754735
71.014385	-3.007100	3.861700	-11.611000	21.270543	0.000441	20.758553
72.015712	-3.009600	3.861600	-11.622000	21.297134	0.000440	20.731101
73.016073	-3.003200	3.859700	-11.591000	21.308054	0.000440	20.765734
74.017205	-3.001600	3.861500	-11.589000	21.317262	0.000439	20.747445
75.017621	-3.010600	3.860900	-11.622000	21.315938	0.000438	20.754656
76.018129	-2.993700	3.861700	-11.559000	21.331258	0.000438	20.749593
77.018209	-3.000100	3.861400	-11.583000	21.331954	0.000441	20.760721
78.018186	-3.003500	3.860300	-11.594000	21.345821	0.000441	20.748042
79.021676	-3.006800	3.860100	-11.605000	21.356327	0.000440	20.737690
80.021339	-2.971300	3.859900	-11.468000	21.340539	0.000440	20.721420
81.019268	-2.970500	3.861100	-11.468000	21.361885	0.000442	20.742777
82.018268	-3.012800	3.860100	-11.629000	21.372994	0.000442	20.765271
83.020607	-3.002100	3.859300	-11.585000	21.380940	0.000442	20.740030
84.020740	-2.978700	3.861100	-11.500000	21.401453	0.000443	20.733052
85.023682	-3.004000	3.858800	-11.590000	21.389876	0.000442	20.729056
86.023464	-2.976500	3.858800	-11.484000	21.428317	0.000441	20.739069
87.020704	-2.982200	3.858300	-11.505000	21.445827	0.000442	20.733828
88.021221	-2.984500	3.859900	-11.518000	21.455181	0.000442	20.744611
89.023101	-3.001000	3.858500	-11.578000	21.470271	0.000441	20.733156
90.020043	-3.001300	3.858500	-11.580000	21.465182	0.000441	20.734702
91.023749	-2.997400	3.857900	-11.562000	21.462843	0.000441	20.766976
92.021128	-2.996400	3.858400	-11.561000	21.468954	0.000441	20.747012
93.021144	-2.986300	3.856900	-11.517000	21.485644	0.000442	20.733365
94.024415	-2.997300	3.857600	-11.561000	21.475766	0.000444	20.725852
95.028048	-3.004200	3.856900	-11.586000	21.499983	0.000441	20.729695
96.038396	-3.004800	3.857100	-11.588000	21.511860	0.000443	20.729251
97.022054	-3.010600	3.856500	-11.609000	21.519368	0.000441	20.725383
98.023357	-2.993700	3.856300	-11.543000	21.546057	0.000444	20.729804
99.024691	-2.976700	3.856700	-11.478000	21.549226	0.000442	20.734398
100.024891	-2.980700	3.857800	-11.499000	21.534783	0.000443	20.740335
101.027969	-3.026000	3.855500	-11.666000	21.549226	0.000443	20.729657
102.024201	-3.001700	3.856100	-11.574000	21.552296	0.000446	20.715184
103.029067	-3.014700	3.855900	-11.623000	21.569478	0.000443	20.724791
104.026032	-3.009500	3.855200	-11.601000	21.570056	0.000445	20.737698
105.025921	-3.012700	3.854900	-11.613000	21.562702	0.000444	20.723226
106.028731	-2.991700	3.856200	-11.535000	21.588264	0.000445	20.707554
107.029168	-3.021400	3.854500	-11.644000	21.594128	0.000442	20.729544
108.026049	-3.023900	3.856000	-11.659000	21.595832	0.000443	20.727456
109.027822	-2.987600	3.855200	-11.517000	21.611191	0.000445	20.749940
110.028455	-2.972300	3.856100	-11.460000	21.607604	0.000445	20.734969
111.027766	-2.976000	3.855400	-11.473000	21.624138	0.000446	20.713107
112.032734	-2.999900	3.854200	-11.562000	21.623935	0.000445	20.711482
113.027415	-2.969100	3.855700	-11.447000	21.625017	0.000445	20.717781
114.027357	-2.990400	3.854500	-11.525000	21.642247	0.000446	20.727437
115.027320	-2.982900	3.854100	-11.495000	21.648018	0.000446	20.708555
116.026535	-2.985500	3.855300	-11.509000	21.683221	0.000447	20.729087
117.030651	-2.982300	3.853400	-11.491000	21.665942	0.000446	20.740719
118.026108	-2.993900	3.852900	-11.534000	21.688334	0.000446	20.706227
119.030975	-2.998400	3.851900	-11.548000	21.706122	0.000445	20.717392
120.031118	-2.993900	3.853800	-11.536000	21.706546	0.000448	20.719713
121.026433	-3.002900	3.854200	-11.572000	21.729668	0.000448	20.721991
122.028882	-2.996800	3.851900	-11.543000	21.718747	0.000446	20.724337
123.030635	-2.996000	3.852500	-11.541000	21.740737	0.000448	20.708886
124.027289	-3.005700	3.851600	-11.576000	21.744360	0.000448	20.721048
125.030205	-2.985800	3.852900	-11.503000	21.749547	0.000447	20.707272
126.030317	-2.998700	3.851400	-11.548000	21.765803	0.000448	20.719275
127.029465	-2.978600	3.853300	-11.476000	21.757681	0.000448	20.725371
128.031904	-2.995800	3.852100	-11.539000	21.769401	0.000451	20.693477
129.028347	-2.981800	3.852700	-11.486000	21.786032	0.000448	20.703484
130.028929	-2.998900	3.850900	-11.547000	21.776292	0.000449	20.722660
131.029274	-2.956200	3.853000	-11.389000	21.807411	0.000451	20.704019
132.030942	-2.980700	3.851400	-11.479000	21.786246	0.000449	20.702750
133.032042	-2.995200	3.851600	-11.536000	21.815722	0.000451	20.714709
134.032350	-2.994200	3.852200	-11.534000	21.824071	0.000451	20.711686
135.028956	-2.976600	3.851800	-11.464000	21.830186	0.000450	20.724445
136.028945	-3.001100	3.849800	-11.552000	21.828069	0.000450	20.719007
137.028657	-3.004300	3.851300	-11.569000	21.842005	0.000450	20.711143
138.029157	-2.965400	3.852000	-11.422000	21.840909	0.000451	20.720479
139.032714	-2.979500	3.849800	-11.469000	21.827306	0.000451	20.719665
140.031014	-2.999800	3.848700	-11.544000	21.842059	0.000452	20.699343
141.030349	-2.990000	3.849500	-11.509000	21.866003	0.000453	20.694385
142.033050	-3.003300	3.849400	-11.560000	21.874259	0.000452	20.719720
143.030133	-3.004000	3.848400	-11.559000	21.889042	0.000453	20.700851
144.034667	-3.014800	3.849100	-11.603000	21.882391	0.000452	20.703677
145.032081	-3.005600	3.849000	-11.567000	21.869897	0.000454	20.704922
146.031782	-2.989400	3.849600	-11.507000	21.895384	0.000455	20.706251
147.032099	-2.981800	3.849000	-11.476000	21.895458	0.000456	20.709645
148.035486	-2.989600	3.850100	-11.509000	21.916054	0.000454	20.717459
149.032190	-3.000700	3.848800	-11.548000	21.920422	0.000453	20.708554
150.033687	-2.998400	3.848600	-11.539000	21.913815	0.000452	20.697198
151.031390	-2.997300	3.847100	-11.530000	21.907090	0.000451	20.708011
152.032126	-3.001500	3.848400	-11.550000	21.944290	0.000455	20.712531
153.036912	-3.010500	3.846800	-11.580000	21.952896	0.000455	20.701230
154.031515	-3.004600	3.847500	-11.559000	21.963034	0.000456	20.706638
155.036499	-2.998200	3.846300	-11.531000	21.991534	0.000456	20.692492
156.060800	-3.024400	3.846300	-11.632000	21.989516	0.000456	20.709440
157.036173	-2.987800	3.847900	-11.496000	22.008684	0.000457	20.708239
158.033477	-2.998100	3.845900	-11.530000	22.016865	0.000454	20.698884
159.042333	-3.006800	3.846200	-11.563000	22.047682	0.000457	20.688956
160.036151	-2.983500	3.847400	-11.477000	22.018870	0.000460	20.700417
161.035761	-3.023700	3.844000	-11.622000	22.049177	0.000455	20.704205
162.034464	-2.995100	3.846400	-11.520000	22.054491	0.000458	20.683918
163.035747	-3.002200	3.845500	-11.544000	22.080713	0.000458	20.694998
164.033308	-2.994300	3.845500	-11.514000	22.084084	0.000459	20.697898
165.038154	-2.994500	3.845500	-11.514000	22.079471	0.000459	20.701340
166.033278	-2.993300	3.845100	-11.509000	22.074710	0.000458	20.687090
167.037641	-2.989000	3.845900	-11.494000	22.059726	0.000459	20.683943
168.034005	-3.001200	3.843800	-11.535000	22.074685	0.000457	20.688962
169.034781	-2.976600	3.845400	-11.445000	22.102580	0.000459	20.671367
170.035955	-2.997600	3.844700	-11.524000	22.103023	0.000459	20.660904
171.042957	-3.017500	3.842900	-11.594000	22.107088	0.000462	20.709550
172.036337	-2.982200	3.845300	-11.466000	22.118775	0.000461	20.685686
173.037880	-3.007100	3.842600	-11.553000	22.121691	0.000463	20.672483
174.036945	-2.999100	3.843500	-11.526000	22.108952	0.000462	20.707148
175.039541	-2.988000	3.843100	-11.482000	22.130862	0.000462	20.679294
176.040716	-3.009200	3.842100	-11.559000	22.129066	0.000464	20.667538
177.037305	-2.998400	3.843100	-11.522000	22.144713	0.000464	20.672773
178.038283	-3.002900	3.842600	-11.538000	22.190227	0.000463	20.687522
179.039230	-2.993900	3.842500	-11.503000	22.153331	0.000464	20.694205
180.039177	-2.993000	3.842600	-11.499000	22.176906	0.000465	20.665174
181.040127	-2.960100	3.843900	-11.377000	22.148910	0.000464	20.680294
182.038088	-2.990300	3.842400	-11.489000	22.179293	0.000467	20.698387
183.050702	-2.998700	3.840700	-11.516000	22.202641	0.000466	20.693788
184.042873	-2.998100	3.842200	-11.519000	22.191121	0.000465	20.679882
185.038685	-2.987700	3.841400	-11.476000	22.207420	0.000464	20.699996
186.040986	-2.993800	3.841500	-11.501000	22.218799	0.000467	20.700958
187.041066	-3.018900	3.839800	-11.591000	22.231684	0.000466	20.684934
188.040274	-3.009200	3.841000	-11.557000	22.240700	0.000465	20.659820
189.041389	-2.999300	3.839800	-11.516000	22.216795	0.000465	20.684251
190.040771	-2.998700	3.839600	-11.513000	22.211807	0.000466	20.676886
191.050433	-2.995900	3.839500	-11.502000	22.251852	0.000468	20.655812
192.046347	-2.994800	3.840400	-11.501000	22.263463	0.000468	20.670285
193.042223	-2.991500	3.840800	-11.489000	22.251748	0.000468	20.671357
194.043345	-3.006000	3.840500	-11.543000	22.293660	0.000468	20.684875
195.046371	-3.012000	3.838900	-11.562000	22.296754	0.000468	20.673272
196.043576	-2.998100	3.839000	-11.509000	22.280322	0.000470	20.666776
197.046614	-3.004600	3.838800	-11.533000	22.296773	0.000469	20.683250
198.046139	-2.989200	3.838900	-11.474000	22.306785	0.000469	20.681421
199.045057	-2.992200	3.838600	-11.484000	22.319330	0.000469	20.676438
200.044881	-3.014400	3.838100	-11.569000	22.308279	0.000470	20.681495
201.050223	-2.984100	3.839400	-11.457000	22.334441	0.000470	20.682087
202.047055	-3.003400	3.838100	-11.527000	22.347103	0.000469	20.681015
203.046016	-3.020900	3.838000	-11.592000	22.341735	0.000472	20.695556
204.050384	-2.997200	3.838200	-11.503000	22.372248	0.000473	20.698136
205.045627	-3.010900	3.837000	-11.552000	22.379763	0.000470	20.680056
206.046033	-3.025200	3.836800	-11.606000	22.401347	0.000472	20.680333
207.046353	-3.008000	3.835700	-11.537000	22.403616	0.000474	20.696357
208.050593	-2.978300	3.837200	-11.428000	22.413781	0.000474	20.691837
209.051170	-2.987000	3.837200	-11.460000	22.407976	0.000473	20.704517
210.051781	-2.992800	3.836900	-11.481000	22.389233	0.000473	20.681004
211.051521	-2.999500	3.837200	-11.508000	22.379991	0.000474	20.668903
212.051353	-3.010800	3.835000	-11.546000	22.368547	0.000473	20.672142
213.052754	-3.006400	3.834500	-11.527000	22.399650	0.000475	20.655871
214.050916	-3.004600	3.835700	-11.524000	22.402239	0.000476	20.684546
215.050119	-2.993400	3.835000	-11.480000	22.416542	0.000475	20.679428
216.053237	-3.005400	3.835200	-11.525000	22.431398	0.000476	20.673916
217.052400	-3.010800	3.835700	-11.548000	22.439540	0.000475	20.687287
218.055015	-3.006000	3.835000	-11.527000	22.451328	0.000477	20.679176
219.055202	-3.003300	3.834600	-11.515000	22.472210	0.000476	20.667370
220.051881	-3.006200	3.833400	-11.523000	22.459549	0.000478	20.671761
221.056507	-3.023100	3.832600	-11.586000	22.454015	0.000478	20.687558
222.053452	-2.999000	3.833200	-11.495000	22.454286	0.000478	20.681190
223.052580	-3.007000	3.833400	-11.526000	22.475179	0.000480	20.672715
224.059464	-3.020500	3.832700	-11.576000	22.476342	0.000479	20.667715
225.052750	-3.028000	3.832400	-11.603000	22.520397	0.000478	20.696666
226.053870	-2.984700	3.834500	-11.444000	22.534171	0.000478	20.682958
227.056115	-2.991500	3.832000	-11.462000	22.556649	0.000479	20.687454
228.053302	-3.024900	3.832500	-11.592000	22.534343	0.000479	20.693089
229.056112	-2.994800	3.832300	-11.475000	22.537282	0.000480	20.678013
230.055424	-3.006800	3.832000	-11.521000	22.580714	0.000482	20.671251
231.055302	-3.013000	3.832500	-11.546000	22.581809	0.000481	20.661915
232.055333	-2.981500	3.831500	-11.423000	22.566684	0.000480	20.688021
233.055429	-3.017100	3.830500	-11.555000	22.576724	0.000480	20.660142
234.056886	-3.008700	3.831300	-11.526000	22.600844	0.000481	20.661065
235.062035	-3.007400	3.831400	-11.522000	22.593362	0.000483	20.703836
236.057740	-2.997000	3.831600	-11.482000	22.610730	0.000482	20.697998
237.057082	-3.015600	3.831000	-11.551000	22.624755	0.000482	20.686439
238.061469	-3.014500	3.830700	-11.547000	22.624823	0.000483	20.701682
239.059987	-3.022500	3.830100	-11.575000	22.635593	0.000483	20.690658
240.060905	-3.004800	3.830100	-11.508000	22.595220	0.000483	20.681039
241.057710	-2.998900	3.830600	-11.486000	22.633270	0.000482	20.680743
242.058607	-3.015900	3.829800	-11.549000	22.653245	0.000484	20.686527
243.059348	-3.008100	3.829800	-11.519000	22.634039	0.000484	20.677246
244.059328	-2.993900	3.829800	-11.465000	22.656731	0.000485	20.689545
245.062839	-3.021600	3.829400	-11.569000	22.653196	0.000485	20.691694
246.059641	-2.979000	3.828500	-11.404000	22.655016	0.000484	20.693991
247.060067	-3.005300	3.829400	-11.508000	22.668892	0.000486	20.696984
248.064012	-2.997700	3.828900	-11.476000	22.682116	0.000486	20.705489
249.067914	-3.027300	3.827700	-11.587000	22.691436	0.000486	20.683054
250.063102	-3.002600	3.827300	-11.490000	22.688043	0.000486	20.684871
251.060233	-2.992200	3.826600	-11.448000	22.696539	0.000488	20.695279
252.058589	-3.005400	3.828000	-11.504000	22.730467	0.000487	20.701764
253.060163	-2.995100	3.826800	-11.461000	22.712184	0.000487	20.707158
254.060635	-2.986200	3.828000	-11.430000	22.723939	0.000488	20.690956
255.060406	-2.991200	3.827500	-11.448000	22.741754	0.000485	20.691732
256.066626	-2.984900	3.827800	-11.424000	22.748903	0.000487	20.703636
257.060629	-2.992400	3.826500	-11.450000	22.733430	0.000489	20.708526
258.060896	-2.979500	3.826300	-11.399000	22.730738	0.000491	20.723848
259.061738	-2.986400	3.826400	-11.427000	22.739425	0.000489	20.698409
260.061945	-2.987600	3.826100	-11.430000	22.750736	0.000490	20.705472
261.062473	-2.977000	3.827000	-11.392000	22.762195	0.000491	20.680439
262.062810	-2.991900	3.826800	-11.448000	22.769517	0.000491	20.697732
263.061608	-2.973900	3.825400	-11.375000	22.757303	0.000492	20.707309
264.065694	-3.001900	3.824500	-11.479000	22.772400	0.000491	20.692085
265.063755	-2.996500	3.825700	-11.462000	22.792403	0.000491	20.685570
266.063013	-3.015200	3.825100	-11.532000	22.795563	0.000490	20.703436
267.064939	-3.001000	3.826000	-11.481000	22.788759	0.000491	20.695670
268.064138	-2.993000	3.824900	-11.447000	22.797131	0.000493	20.707851
269.064090	-2.988800	3.824500	-11.429000	22.826698	0.000492	20.704280
270.064212	-2.975200	3.823800	-11.375000	22.832876	0.000492	20.708572
271.066757	-3.005200	3.823400	-11.488000	22.821363	0.000494	20.706996
272.066503	-2.986600	3.823100	-11.416000	22.793905	0.000493	20.716000
