LabVIEW Measurement	
Writer_Version	2
Reader_Version	2
Separator	Tab
Decimal_Separator	.
Multi_Headings	No
X_Columns	One
Time_Pref	Absolute
Operator	admin
Description	Clolumns are: time, Current, Voltage, Power, Battery Temp, and Chamber Temp
Date	2024/08/16
Time	13:07:17.8513970375061035156
***End_of_Header***	
	
Channels	6						
Samples	1	1	1	1	1	1	
Date	2024/09/19	2024/09/19	2024/09/19	2024/09/19	2024/09/19	2024/09/19	
Time	20:02:58.6579942703247070312	20:02:58.6657977104187011719	20:02:58.6747984886169433594	20:02:58.6382727622985839844	20:02:58.6392736434936523437	20:02:58.6392736434936523437	
X_Dimension	Time	Time	Time	Time	Time	Time	
X0	0.0000000000000000E+0	0.0000000000000000E+0	0.0000000000000000E+0	0.0000000000000000E+0	0.0000000000000000E+0	0.0000000000000000E+0	
Delta_X	1.000000	1.000000	1.000000	1.000000	1.000000	1.000000	
***End_of_Header***							
X_Value	Untitled	Untitled 1	Untitled 2	Untitled 3	Untitled 4	Untitled 5	Comment
0.000000	0.019186	4.085800	0.078399	20.837988	0.000479	20.815703
0.999190	-2.985800	3.913500	-11.683000	20.830925	0.000476	20.797735
2.001226	-2.981700	3.907900	-11.651000	20.843528	0.000478	20.807019
3.002903	-3.007100	3.902900	-11.735000	20.838387	0.000477	20.812783
4.004377	-3.010900	3.898200	-11.736000	20.836615	0.000474	20.837563
5.000400	-2.993500	3.897100	-11.665000	20.861544	0.000473	20.824087
6.002006	-2.995100	3.893600	-11.661000	20.853659	0.000473	20.804823
7.007471	-2.991100	3.892700	-11.642000	20.868482	0.000473	20.807792
7.999619	-3.000300	3.889900	-11.670000	20.884277	0.000473	20.827856
9.005935	-2.978400	3.887400	-11.577000	20.883079	0.000470	20.807217
10.003804	-3.006000	3.885700	-11.680000	20.889167	0.000473	20.831323
10.999401	-2.996500	3.884300	-11.637000	20.870651	0.000470	20.816600
12.005556	-3.000800	3.883700	-11.653000	20.901169	0.000470	20.803972
13.004423	-2.983500	3.882600	-11.583000	20.900072	0.000470	20.814254
14.006796	-2.994200	3.880400	-11.618000	20.913821	0.000468	20.821841
15.004482	-2.976000	3.880100	-11.547000	20.927694	0.000468	20.802999
16.005595	-2.982600	3.880400	-11.573000	20.950026	0.000469	20.833394
17.004887	-3.019200	3.877600	-11.706000	20.923501	0.000467	20.805918
18.003839	-3.030200	3.875400	-11.742000	20.937051	0.000467	20.809512
19.004227	-2.994200	3.875500	-11.603000	20.935579	0.000467	20.797134
20.004710	-2.990800	3.875000	-11.588000	20.976225	0.000465	20.809811
21.004790	-3.011500	3.873500	-11.663000	20.976849	0.000464	20.834616
22.005324	-3.009700	3.873800	-11.658000	20.997260	0.000466	20.788649
23.004726	-3.000000	3.873900	-11.621000	21.000153	0.000463	20.803871
24.001400	-2.984700	3.873000	-11.559000	21.008063	0.000464	20.816524
25.004064	-3.016000	3.872000	-11.678000	21.022634	0.000464	20.796484
26.003030	-3.003100	3.870700	-11.623000	21.008112	0.000462	20.807564
27.014155	-3.004800	3.870600	-11.628000	21.044813	0.000464	20.819142
28.010493	-3.026700	3.868800	-11.707000	21.020412	0.000465	20.808961
29.011332	-2.985000	3.870000	-11.551000	21.055393	0.000462	20.814551
30.012743	-3.000700	3.869400	-11.610000	21.055791	0.000465	20.800725
31.009181	-3.009700	3.867400	-11.639000	21.069015	0.000463	20.806365
32.012480	-2.994100	3.868200	-11.580000	21.083734	0.000460	20.803071
33.012846	-2.995200	3.867900	-11.584000	21.092166	0.000461	20.801548
34.008628	-3.015100	3.867600	-11.660000	21.086229	0.000459	20.805092
35.008931	-2.982600	3.867500	-11.535000	21.100449	0.000460	20.810781
36.011418	-3.008300	3.866300	-11.630000	21.114071	0.000461	20.782681
37.010283	-3.013000	3.865200	-11.645000	21.098927	0.000460	20.814000
38.013196	-2.994100	3.865700	-11.574000	21.127867	0.000459	20.788420
39.014071	-2.998500	3.865100	-11.588000	21.152815	0.000461	20.822859
40.013561	-2.997000	3.865300	-11.584000	21.133156	0.000459	20.821211
41.016014	-3.006800	3.864600	-11.619000	21.158053	0.000459	20.800597
42.011091	-2.996700	3.865800	-11.583000	21.162693	0.000459	20.799075
43.013554	-3.018500	3.864400	-11.663000	21.168631	0.000459	20.796005
44.014799	-2.997500	3.863600	-11.580000	21.173346	0.000459	20.801670
45.017686	-3.001800	3.863200	-11.595000	21.184297	0.000460	20.785124
46.018012	-2.994000	3.862900	-11.564000	21.205876	0.000458	20.811926
47.012568	-3.006800	3.863100	-11.615000	21.208445	0.000459	20.799324
48.017182	-3.006900	3.862700	-11.612000	21.219572	0.000459	20.802868
49.015532	-3.021800	3.860500	-11.664000	21.225010	0.000458	20.784126
50.013203	-3.008000	3.860800	-11.612000	21.239678	0.000460	20.793583
51.012978	-2.996700	3.861500	-11.571000	21.252998	0.000457	20.784150
52.016805	-3.003200	3.860200	-11.592000	21.270160	0.000457	20.804638
53.019773	-2.984000	3.859800	-11.517000	21.267192	0.000460	20.785073
54.016621	-2.984600	3.860500	-11.521000	21.286026	0.000457	20.787319
55.014738	-2.965200	3.861300	-11.449000	21.274925	0.000457	20.796128
56.025234	-2.986200	3.860700	-11.528000	21.287996	0.000460	20.796876
57.026472	-3.011800	3.859100	-11.621000	21.302487	0.000458	20.797150
58.015539	-3.013300	3.859100	-11.628000	21.313289	0.000457	20.809853
59.022313	-2.988900	3.860200	-11.537000	21.321420	0.000458	20.789538
60.021460	-2.996300	3.858700	-11.561000	21.309945	0.000458	20.787067
61.021112	-3.006300	3.858000	-11.598000	21.346563	0.000458	20.804261
62.025752	-3.013300	3.858900	-11.627000	21.354295	0.000460	20.804411
63.018358	-2.993600	3.858900	-11.551000	21.365470	0.000460	20.788564
64.022655	-3.011500	3.857900	-11.617000	21.357637	0.000456	20.780253
65.024377	-2.997900	3.857600	-11.564000	21.374449	0.000458	20.793281
66.023467	-3.003800	3.859200	-11.591000	21.369086	0.000459	20.797872
67.019328	-3.006600	3.858300	-11.600000	21.386271	0.000458	20.784720
68.019896	-3.000300	3.858000	-11.574000	21.421465	0.000458	20.777258
69.019194	-3.001200	3.858000	-11.578000	21.403706	0.000460	20.786517
70.024387	-3.008600	3.856600	-11.602000	21.431541	0.000458	20.793978
71.023945	-3.008400	3.856300	-11.600000	21.411687	0.000459	20.790709
72.021002	-2.988200	3.856800	-11.524000	21.427301	0.000457	20.787365
73.023944	-2.992000	3.857200	-11.540000	21.440744	0.000456	20.789910
74.022800	-2.999600	3.857400	-11.570000	21.459824	0.000461	20.768697
75.024386	-2.988300	3.856000	-11.522000	21.479078	0.000458	20.809300
76.023772	-2.991000	3.856400	-11.534000	21.480500	0.000460	20.794127
77.025880	-2.999000	3.857600	-11.568000	21.485862	0.000457	20.783371
78.021609	-3.013000	3.856800	-11.620000	21.480499	0.000461	20.800290
79.024289	-2.996900	3.855100	-11.553000	21.497359	0.000459	20.784918
80.023327	-3.002600	3.855300	-11.575000	21.508782	0.000459	20.781175
81.021740	-3.000700	3.854800	-11.567000	21.520030	0.000458	20.784369
82.025667	-2.997500	3.855500	-11.556000	21.522200	0.000460	20.779902
83.024672	-3.001900	3.854100	-11.569000	21.515266	0.000460	20.792405
84.021368	-3.004400	3.854700	-11.580000	21.537114	0.000458	20.786765
85.029408	-3.009800	3.854700	-11.601000	21.534844	0.000458	20.771217
86.021897	-2.984300	3.854700	-11.503000	21.563823	0.000459	20.782672
87.024512	-2.998900	3.853300	-11.555000	21.571779	0.000459	20.794900
88.023633	-2.973300	3.854900	-11.461000	21.580407	0.000458	20.798793
89.024973	-3.005100	3.853400	-11.579000	21.590507	0.000458	20.789459
90.022597	-2.994100	3.853900	-11.538000	21.613550	0.000459	20.780749
91.023819	-2.974600	3.854200	-11.464000	21.600881	0.000458	20.770917
92.028020	-2.979100	3.853300	-11.479000	21.604198	0.000461	20.797470
93.024499	-2.991400	3.853000	-11.525000	21.614348	0.000460	20.762107
94.024458	-3.000600	3.852200	-11.558000	21.644646	0.000459	20.790057
95.028562	-3.011900	3.851900	-11.600000	21.641179	0.000458	20.798442
96.028575	-3.003500	3.852500	-11.569000	21.670855	0.000460	20.791155
97.027721	-2.986800	3.852800	-11.506000	21.648386	0.000459	20.798068
98.027678	-2.998900	3.851600	-11.550000	21.673623	0.000461	20.798667
99.028808	-3.001900	3.850800	-11.558000	21.676614	0.000461	20.809247
100.031769	-3.000400	3.851100	-11.554000	21.690903	0.000460	20.802685
101.027583	-2.994600	3.851500	-11.532000	21.695067	0.000463	20.802584
102.030253	-3.002700	3.852100	-11.566000	21.699655	0.000461	20.785839
103.029619	-3.015200	3.850700	-11.610000	21.704842	0.000460	20.781072
104.030057	-3.032800	3.850200	-11.676000	21.711524	0.000461	20.797243
105.032804	-2.984600	3.851500	-11.495000	21.743666	0.000462	20.805703
106.030540	-2.995500	3.849900	-11.530000	21.752168	0.000460	20.789557
107.032659	-3.012900	3.850100	-11.599000	21.739676	0.000461	20.795546
108.033163	-3.014400	3.850700	-11.606000	21.763389	0.000460	20.805054
109.030833	-3.004400	3.850600	-11.568000	21.770720	0.000459	20.789157
110.034246	-3.001400	3.849600	-11.553000	21.765808	0.000460	20.808423
111.030585	-3.002500	3.850300	-11.559000	21.776031	0.000460	20.793051
112.030588	-3.008700	3.849200	-11.579000	21.811761	0.000462	20.791828
113.033020	-3.015500	3.849200	-11.607000	21.825376	0.000461	20.804506
114.035995	-3.011900	3.849800	-11.594000	21.812484	0.000461	20.775482
115.031943	-2.992300	3.849900	-11.520000	21.813556	0.000461	20.799314
116.033754	-2.990800	3.849100	-11.511000	21.827795	0.000460	20.796970
117.038170	-2.994800	3.848900	-11.526000	21.846170	0.000462	20.784541
118.032804	-2.998200	3.849600	-11.541000	21.852453	0.000462	20.802210
119.030870	-2.970000	3.849700	-11.433000	21.863523	0.000461	20.788634
120.032881	-2.973100	3.850200	-11.446000	21.848863	0.000463	20.794823
121.033209	-3.003900	3.847400	-11.557000	21.883769	0.000463	20.794674
122.036654	-2.971000	3.849400	-11.435000	21.900498	0.000464	20.809523
123.039673	-3.001400	3.848100	-11.549000	21.893168	0.000462	20.804083
124.037850	-2.992800	3.847700	-11.515000	21.891323	0.000463	20.819779
125.037959	-2.979900	3.849400	-11.469000	21.905759	0.000463	20.803409
126.037146	-2.991200	3.847400	-11.507000	21.896560	0.000461	20.821228
127.037681	-3.003800	3.847200	-11.556000	21.884616	0.000465	20.815911
128.038824	-2.998800	3.848800	-11.541000	21.935826	0.000464	20.810746
129.034974	-2.991900	3.847500	-11.510000	21.918076	0.000465	20.781125
130.039092	-3.002700	3.846500	-11.549000	21.955297	0.000465	20.789934
131.039383	-3.007100	3.847300	-11.569000	21.966766	0.000465	20.785767
132.038644	-2.994200	3.846300	-11.515000	21.961929	0.000467	20.797046
133.037854	-2.996200	3.846100	-11.523000	21.968885	0.000466	20.795001
134.038804	-2.996700	3.846500	-11.526000	21.990549	0.000468	20.821429
135.038838	-3.013300	3.845500	-11.586000	21.983320	0.000469	20.804235
136.041222	-3.019100	3.845300	-11.609000	21.999748	0.000467	20.823050
137.037845	-2.998300	3.846200	-11.531000	22.006579	0.000468	20.818983
138.042908	-2.990600	3.846300	-11.502000	22.010119	0.000468	20.808303
139.041114	-3.015600	3.845600	-11.595000	22.033353	0.000469	20.810224
140.037522	-2.991800	3.845300	-11.503000	22.054069	0.000468	20.801565
141.045312	-3.009400	3.844200	-11.567000	22.041854	0.000471	20.806406
142.043172	-3.022700	3.843400	-11.617000	22.077077	0.000471	20.820806
143.043511	-2.995800	3.845600	-11.519000	22.082013	0.000469	20.815789
144.039119	-2.997100	3.844400	-11.521000	22.076179	0.000472	20.810424
145.042220	-2.998900	3.844200	-11.527000	22.076180	0.000469	20.816114
146.040646	-3.013400	3.843500	-11.581000	22.089915	0.000468	20.798096
147.043140	-3.006600	3.844400	-11.558000	22.107638	0.000470	20.815839
148.043797	-2.987100	3.843400	-11.480000	22.100010	0.000471	20.803461
149.040452	-2.992300	3.845000	-11.505000	22.118655	0.000471	20.809800
150.045825	-3.011300	3.842800	-11.571000	22.118755	0.000472	20.820805
151.046847	-3.018400	3.842300	-11.597000	22.133412	0.000473	20.819832
152.046427	-3.007500	3.842800	-11.557000	22.144055	0.000475	20.817211
153.045892	-3.004900	3.843100	-11.547000	22.123591	0.000474	20.797198
154.048208	-3.021300	3.842000	-11.607000	22.121547	0.000473	20.813643
155.047728	-3.008500	3.841000	-11.555000	22.152206	0.000473	20.823001
156.048128	-3.018300	3.841000	-11.591000	22.180074	0.000475	20.815340
157.045411	-3.018700	3.842300	-11.599000	22.194156	0.000476	20.817111
158.048884	-2.991300	3.842700	-11.494000	22.182391	0.000474	20.820031
159.050641	-2.990800	3.842700	-11.492000	22.214445	0.000476	20.819882
160.049398	-3.017100	3.840900	-11.587000	22.196149	0.000474	20.824797
161.049763	-2.984900	3.841300	-11.465000	22.210008	0.000478	20.823025
162.053112	-3.004300	3.841200	-11.540000	22.208088	0.000475	20.829638
163.050324	-3.018300	3.841000	-11.592000	22.218033	0.000475	20.816362
164.052153	-2.989300	3.841400	-11.482000	22.238945	0.000475	20.821653
165.054434	-2.992000	3.842500	-11.496000	22.233959	0.000477	20.833730
166.048336	-3.008200	3.841000	-11.553000	22.224987	0.000477	20.828065
167.050929	-2.969600	3.841500	-11.406000	22.250958	0.000476	20.838422
168.050110	-2.993200	3.840300	-11.494000	22.236676	0.000476	20.819381
169.048464	-2.969100	3.840700	-11.403000	22.242583	0.000475	20.817235
170.053195	-2.989000	3.839300	-11.474000	22.246795	0.000476	20.815288
171.057391	-2.982800	3.840900	-11.456000	22.282585	0.000478	20.828839
172.055124	-2.990800	3.839600	-11.483000	22.294374	0.000478	20.821202
173.054519	-2.984500	3.838800	-11.456000	22.296118	0.000479	20.828639
174.052508	-2.972500	3.839800	-11.413000	22.304268	0.000480	20.842963
175.049047	-3.019900	3.838400	-11.591000	22.306063	0.000478	20.832432
176.052865	-2.967900	3.839900	-11.395000	22.325826	0.000479	20.831359
177.048805	-3.015700	3.838700	-11.574000	22.351894	0.000479	20.825694
178.052123	-3.022000	3.836600	-11.594000	22.345165	0.000480	20.823698
179.052061	-3.018500	3.837000	-11.581000	22.363557	0.000479	20.830735
180.047230	-3.010200	3.837100	-11.550000	22.389127	0.000480	20.831683
181.052453	-3.014200	3.837700	-11.567000	22.408065	0.000483	20.837372
182.057703	-3.003600	3.836900	-11.524000	22.437696	0.000481	20.833380
183.051701	-2.991900	3.838300	-11.483000	22.397898	0.000483	20.849002
184.054704	-3.038300	3.835700	-11.653000	22.399144	0.000482	20.842189
185.055077	-3.021400	3.835500	-11.588000	22.417785	0.000480	20.828614
186.053630	-3.007000	3.837000	-11.536000	22.424936	0.000482	20.837197
187.053823	-3.004200	3.836100	-11.523000	22.422145	0.000483	20.833454
188.055631	-2.993200	3.835700	-11.481000	22.450878	0.000482	20.846106
189.053768	-3.009400	3.835400	-11.541000	22.451974	0.000482	20.823023
190.052676	-3.009800	3.836300	-11.546000	22.427128	0.000484	20.843186
191.052609	-3.007000	3.835000	-11.531000	22.458577	0.000482	20.819679
192.052216	-3.018700	3.834800	-11.575000	22.454466	0.000486	20.846855
193.051444	-2.986700	3.834200	-11.451000	22.491097	0.000484	20.841339
194.053707	-3.006400	3.835800	-11.531000	22.500416	0.000484	20.842612
195.052249	-3.009600	3.834400	-11.538000	22.511380	0.000484	20.846480
196.053103	-3.013600	3.834500	-11.555000	22.513299	0.000487	20.842712
197.057981	-2.979700	3.835400	-11.427000	22.518705	0.000487	20.852393
198.053845	-3.001400	3.834100	-11.507000	22.532909	0.000487	20.853816
199.054023	-2.996100	3.834200	-11.487000	22.513498	0.000486	20.844334
200.053812	-3.005000	3.832600	-11.517000	22.531862	0.000486	20.837596
201.055039	-3.016900	3.833800	-11.565000	22.547460	0.000486	20.835674
202.053702	-2.998700	3.834000	-11.496000	22.556356	0.000486	20.859755
203.057359	-2.999000	3.832900	-11.494000	22.566497	0.000487	20.834351
204.058053	-2.991000	3.833300	-11.465000	22.579229	0.000487	20.870335
205.056161	-2.978300	3.833600	-11.416000	22.574520	0.000489	20.838120
206.057456	-3.004900	3.831100	-11.511000	22.593332	0.000488	20.849374
207.058877	-2.990800	3.833200	-11.463000	22.575144	0.000486	20.845856
208.054768	-2.999300	3.832600	-11.495000	22.575068	0.000488	20.865694
209.055081	-2.976700	3.832100	-11.406000	22.586255	0.000487	20.846080
210.057801	-2.992100	3.832300	-11.466000	22.580300	0.000489	20.850546
211.059349	-2.994600	3.831800	-11.474000	22.605740	0.000490	20.878870
212.059959	-3.000900	3.830600	-11.494000	22.628936	0.000492	20.862275
213.059705	-2.992800	3.831300	-11.466000	22.635240	0.000491	20.843459
214.060999	-3.011300	3.830100	-11.533000	22.632475	0.000492	20.874353
215.063016	-3.023500	3.829400	-11.577000	22.627790	0.000491	20.892419
216.063096	-2.986800	3.830500	-11.440000	22.625498	0.000493	20.894864
217.060555	-2.977400	3.830900	-11.406000	22.650563	0.000492	20.853117
218.059941	-2.990600	3.831400	-11.457000	22.673409	0.000493	20.875051
219.058639	-3.021200	3.829100	-11.567000	22.667255	0.000493	20.854189
220.060046	-2.996100	3.829100	-11.472000	22.678218	0.000492	20.861850
221.064181	-3.005300	3.830300	-11.510000	22.719924	0.000493	20.868538
222.063753	-2.988000	3.830400	-11.445000	22.711205	0.000493	20.861227
223.065859	-3.003000	3.829600	-11.500000	22.698822	0.000495	20.863996
224.063087	-2.997400	3.829300	-11.477000	22.713795	0.000494	20.863822
225.064579	-3.002200	3.828300	-11.492000	22.741948	0.000494	20.861202
226.063920	-3.005800	3.829400	-11.509000	22.740926	0.000495	20.868713
227.061738	-2.997900	3.829300	-11.479000	22.752810	0.000496	20.868289
228.066922	-2.992300	3.827200	-11.451000	22.752809	0.000496	20.853116
229.060729	-3.004700	3.828700	-11.503000	22.747777	0.000495	20.858506
230.062809	-3.002800	3.827400	-11.492000	22.787363	0.000496	20.878245
231.059664	-2.997000	3.826500	-11.467000	22.789106	0.000496	20.872879
232.064961	-2.983500	3.826900	-11.417000	22.803704	0.000495	20.872330
233.064262	-2.978500	3.828300	-11.401000	22.777048	0.000496	20.893042
234.064371	-2.999500	3.825600	-11.474000	22.795085	0.000497	20.886928
235.065976	-3.011400	3.825900	-11.521000	22.790675	0.000494	20.891520
236.069753	-2.995000	3.826700	-11.460000	22.783949	0.000497	20.879567
237.066750	-2.994200	3.825800	-11.455000	22.824828	0.000495	20.863621
238.064746	-2.971300	3.827900	-11.372000	22.808337	0.000496	20.886927
239.068041	-3.004000	3.826900	-11.495000	22.813394	0.000496	20.901949
240.063278	-3.001500	3.825100	-11.481000	22.819025	0.000496	20.865393
241.062451	-2.999100	3.824200	-11.469000	22.825352	0.000499	20.875050
242.067575	-2.998400	3.825000	-11.468000	22.834420	0.000500	20.893615
243.066472	-3.008100	3.825700	-11.507000	22.852431	0.000499	20.880366
244.067838	-3.003900	3.825000	-11.489000	22.850837	0.000498	20.874502
245.066789	-2.982900	3.825100	-11.408000	22.849815	0.000499	20.873953
246.067128	-2.989700	3.825500	-11.436000	22.873605	0.000500	20.879293
247.068400	-2.967900	3.824700	-11.350000	22.865459	0.000500	20.888201
248.068476	-2.993500	3.823800	-11.446000	22.888576	0.000501	20.878170
249.073265	-3.003200	3.823200	-11.481000	22.904194	0.000500	20.890498
250.065739	-2.986200	3.824600	-11.421000	22.933139	0.000501	20.884409
251.068924	-3.001100	3.822700	-11.471000	22.943028	0.000501	20.865869
252.072186	-3.000600	3.823400	-11.472000	22.926513	0.000500	20.891521
253.071358	-3.010800	3.824000	-11.512000	22.942605	0.000503	20.870660
254.072176	-3.004000	3.822400	-11.482000	22.930076	0.000503	20.887504
255.075514	-3.004000	3.822100	-11.481000	22.933414	0.000504	20.882788
256.071816	-3.019200	3.821100	-11.536000	22.959667	0.000501	20.887280
257.074804	-2.980600	3.822000	-11.391000	22.984202	0.000504	20.883413
258.067905	-3.017300	3.821000	-11.528000	22.975485	0.000504	20.901230
259.069686	-2.990600	3.821500	-11.428000	22.968337	0.000503	20.889802
260.070959	-2.991200	3.821500	-11.430000	22.970454	0.000505	20.883863
261.070220	-2.999200	3.820000	-11.456000	22.974863	0.000503	20.894917
262.075562	-3.004200	3.820800	-11.478000	23.005650	0.000504	20.889254
263.075143	-3.006600	3.820500	-11.486000	23.044629	0.000507	20.898437
264.077703	-2.981600	3.821100	-11.392000	23.016385	0.000505	20.876303
265.077682	-3.008600	3.819200	-11.489000	23.061466	0.000506	20.916728
266.075784	-2.999600	3.820400	-11.458000	23.007245	0.000505	20.888007
267.080802	-2.995200	3.819000	-11.438000	23.017507	0.000506	20.896866
268.077633	-3.013000	3.818700	-11.505000	23.023510	0.000506	20.888657
269.074209	-3.008900	3.819600	-11.492000	23.052601	0.000506	20.913061
270.074650	-3.000800	3.819900	-11.462000	23.078927	0.000509	20.893449
271.079846	-2.987200	3.819300	-11.408000	23.071555	0.000506	20.894597
272.078039	-2.997700	3.819300	-11.448000	23.063761	0.000509	20.911915
