LabVIEW Measurement	
Writer_Version	2
Reader_Version	2
Separator	Tab
Decimal_Separator	.
Multi_Headings	No
X_Columns	One
Time_Pref	Absolute
Operator	admin
Description	Clolumns are: time, Current, Voltage, Power, Battery Temp, and Chamber Temp
Date	2024/08/16
Time	13:07:17.8513970375061035156
***End_of_Header***	
	
Channels	6						
Samples	1	1	1	1	1	1	
Date	2024/08/30	2024/08/30	2024/08/30	2024/08/30	2024/08/30	2024/08/30	
Time	10:07:20.5084352493286132813	10:07:20.5147376060485839844	10:07:20.519695281982421875	10:07:20.4924216270446777344	10:07:20.4924216270446777344	10:07:20.4924216270446777344	
X_Dimension	Time	Time	Time	Time	Time	Time	
X0	0.0000000000000000E+0	0.0000000000000000E+0	0.0000000000000000E+0	0.0000000000000000E+0	0.0000000000000000E+0	0.0000000000000000E+0	
Delta_X	1.000000	1.000000	1.000000	1.000000	1.000000	1.000000	
***End_of_Header***							
X_Value	Untitled	Untitled 1	Untitled 2	Untitled 3	Untitled 4	Untitled 5	Comment
0.000000	0.022793	4.087600	0.093167	20.777334	0.000456	20.716165
0.999966	-3.012800	3.926900	-11.830000	20.774993	0.000456	20.720463
2.002675	-2.999100	3.921900	-11.762000	20.789514	0.000454	20.724553
3.001041	-3.000500	3.916900	-11.752000	20.781681	0.000455	20.714822
4.002010	-2.992200	3.913900	-11.710000	20.799871	0.000453	20.724005
5.000726	-2.989300	3.912100	-11.693000	20.825253	0.000454	20.747491
6.004966	-2.993100	3.908400	-11.697000	20.809982	0.000452	20.737435
7.000820	-3.000200	3.907500	-11.723000	20.824053	0.000453	20.738704
8.001069	-2.998500	3.905100	-11.709000	20.821934	0.000450	20.728524
9.003673	-3.010700	3.901700	-11.746000	20.819988	0.000450	20.734639
10.006233	-3.013300	3.901600	-11.755000	20.819287	0.000451	20.720661
11.001289	-3.008300	3.900600	-11.733000	20.828320	0.000451	20.710727
12.006785	-2.997500	3.899100	-11.686000	20.857544	0.000449	20.736635
13.006878	-3.000900	3.897300	-11.694000	20.843369	0.000448	20.735736
14.002761	-3.016700	3.895900	-11.751000	20.834711	0.000446	20.737035
15.005579	-3.008000	3.895300	-11.716000	20.870173	0.000448	20.737410
16.007030	-3.003500	3.893000	-11.692000	20.855499	0.000449	20.736487
17.005720	-3.012400	3.893600	-11.728000	20.859988	0.000445	20.739554
18.006706	-3.008000	3.891600	-11.706000	20.873017	0.000445	20.743101
19.006393	-2.996500	3.891300	-11.660000	20.887740	0.000447	20.735538
20.005156	-3.002000	3.891200	-11.681000	20.890658	0.000448	20.732767
21.004285	-2.989000	3.890900	-11.629000	20.912591	0.000444	20.741426
22.003895	-3.012600	3.889100	-11.715000	20.914992	0.000443	20.743827
23.007133	-3.019500	3.889200	-11.743000	20.921155	0.000445	20.741930
24.003756	-3.020000	3.887500	-11.740000	20.944134	0.000445	20.732194
25.003288	-3.005900	3.887800	-11.685000	20.918834	0.000444	20.735815
26.008981	-3.005500	3.886500	-11.680000	20.965744	0.000445	20.721565
27.005382	-3.008900	3.886500	-11.694000	20.976925	0.000443	20.757405
28.005628	-3.009400	3.886300	-11.695000	20.961853	0.000442	20.738063
29.015356	-3.000500	3.884300	-11.654000	20.986930	0.000443	20.751765
30.006910	-2.993900	3.885400	-11.632000	21.011680	0.000443	20.752337
31.011151	-2.979600	3.884600	-11.573000	20.997563	0.000443	20.742010
32.008930	-3.011500	3.884500	-11.697000	20.996787	0.000441	20.755933
33.007697	-3.002200	3.883000	-11.657000	21.018520	0.000445	20.744005
34.008827	-3.006700	3.883200	-11.674000	21.019444	0.000442	20.761051
35.015746	-3.012600	3.882300	-11.696000	21.027201	0.000442	20.746050
36.012925	-3.004500	3.882800	-11.666000	21.044138	0.000441	20.762043
37.010558	-2.986500	3.882900	-11.595000	21.043289	0.000440	20.763090
38.010909	-2.985400	3.882500	-11.590000	21.040420	0.000442	20.759272
39.013232	-3.007200	3.880200	-11.666000	21.064621	0.000442	20.757874
40.009534	-3.008800	3.880300	-11.674000	21.064251	0.000442	20.740908
41.009100	-3.015600	3.878500	-11.694000	21.084235	0.000440	20.756630
42.014441	-2.997000	3.879700	-11.625000	21.073905	0.000441	20.766686
43.010490	-3.026500	3.879300	-11.739000	21.088348	0.000439	20.746993
44.016355	-2.997900	3.879000	-11.629000	21.083465	0.000439	20.744005
45.014078	-3.004500	3.879000	-11.654000	21.105498	0.000441	20.766519
46.010933	-3.012900	3.878000	-11.683000	21.113975	0.000438	20.771205
47.010968	-3.007900	3.876200	-11.657000	21.128399	0.000440	20.735846
48.016873	-2.981300	3.878500	-11.562000	21.128547	0.000439	20.758280
49.023491	-2.972900	3.880000	-11.534000	21.144368	0.000438	20.748974
50.011334	-2.988700	3.877000	-11.586000	21.163106	0.000438	20.760607
51.013789	-2.989700	3.876000	-11.586000	21.149305	0.000441	20.759129
52.010146	-2.998200	3.876300	-11.621000	21.169416	0.000439	20.751271
53.012341	-3.007800	3.876000	-11.658000	21.179745	0.000440	20.771088
54.015861	-2.990500	3.877500	-11.595000	21.194113	0.000437	20.780719
55.012125	-3.003600	3.876900	-11.644000	21.206289	0.000439	20.754492
56.015305	-3.004900	3.874800	-11.642000	21.202724	0.000439	20.770367
57.016005	-2.993200	3.875000	-11.597000	21.217615	0.000438	20.758710
58.017574	-2.962200	3.877300	-11.483000	21.219086	0.000438	20.768243
59.014008	-2.969700	3.876600	-11.511000	21.207538	0.000436	20.782769
60.016054	-2.981500	3.875200	-11.552000	21.224429	0.000437	20.784019
61.017121	-2.993200	3.874900	-11.598000	21.256739	0.000438	20.785995
62.023308	-2.973900	3.875100	-11.523000	21.249470	0.000440	20.780620
63.014105	-2.992500	3.874300	-11.593000	21.257810	0.000440	20.774264
64.013071	-2.985600	3.875300	-11.569000	21.259632	0.000441	20.770871
65.012131	-2.979300	3.874200	-11.541000	21.271117	0.000436	20.776671
66.014156	-3.013500	3.873600	-11.671000	21.288845	0.000439	20.788243
67.015824	-2.998600	3.873900	-11.615000	21.316167	0.000438	20.788550
68.015604	-3.004800	3.873400	-11.638000	21.299395	0.000438	20.765606
69.015439	-2.990200	3.873800	-11.582000	21.326544	0.000438	20.770956
70.015247	-2.996200	3.873300	-11.604000	21.351509	0.000438	20.787399
71.024419	-2.981400	3.873700	-11.548000	21.345249	0.000438	20.774972
72.014942	-3.001900	3.873300	-11.626000	21.328341	0.000437	20.800256
73.013566	-2.987700	3.872900	-11.570000	21.367954	0.000440	20.795791
74.017891	-3.011400	3.871300	-11.657000	21.378331	0.000436	20.775353
75.015555	-2.993500	3.872700	-11.592000	21.381678	0.000439	20.779651
76.019089	-2.994800	3.872600	-11.598000	21.397964	0.000438	20.779349
77.018116	-3.005200	3.872000	-11.635000	21.386467	0.000438	20.777329
78.017200	-3.005600	3.872400	-11.638000	21.397594	0.000439	20.772815
79.020211	-2.997500	3.871800	-11.605000	21.397619	0.000439	20.785642
80.017511	-3.006400	3.870000	-11.634000	21.400942	0.000441	20.780906
81.018397	-2.999200	3.870300	-11.608000	21.423843	0.000440	20.780111
82.018161	-3.043400	3.870700	-11.780000	21.432096	0.000437	20.776515
83.017932	-3.006600	3.869100	-11.632000	21.443869	0.000438	20.792563
84.020245	-2.994800	3.870400	-11.591000	21.441604	0.000440	20.789822
85.020051	-3.005300	3.870800	-11.633000	21.465624	0.000438	20.799157
86.018186	-3.006600	3.868400	-11.629000	21.455051	0.000439	20.787629
87.018763	-3.011100	3.868200	-11.647000	21.484007	0.000441	20.798110
88.016893	-3.007500	3.870400	-11.639000	21.480517	0.000440	20.792722
89.018212	-2.997400	3.870400	-11.600000	21.501786	0.000440	20.784132
90.022793	-2.979100	3.870100	-11.528000	21.492739	0.000441	20.776976
91.019071	-3.008800	3.868400	-11.638000	21.506684	0.000440	20.809896
92.017675	-3.014800	3.867700	-11.659000	21.530821	0.000440	20.807495
93.020782	-2.983600	3.869800	-11.545000	21.522401	0.000442	20.800018
94.020587	-3.001900	3.868400	-11.612000	21.545214	0.000443	20.812414
95.019391	-2.998000	3.868000	-11.596000	21.554894	0.000441	20.787013
96.021059	-2.987700	3.869300	-11.559000	21.558863	0.000440	20.799993
97.021334	-2.987800	3.869200	-11.559000	21.567847	0.000441	20.800923
98.022615	-3.007900	3.866300	-11.629000	21.573779	0.000440	20.803540
99.023544	-3.001000	3.867900	-11.606000	21.577238	0.000443	20.816484
100.022542	-3.010000	3.868200	-11.643000	21.575595	0.000441	20.804883
101.023792	-3.010400	3.866600	-11.638000	21.578862	0.000440	20.812894
102.023855	-2.985400	3.868100	-11.547000	21.599489	0.000442	20.829267
103.023511	-2.997800	3.867000	-11.591000	21.619464	0.000442	20.820332
104.023830	-2.992100	3.866600	-11.568000	21.631813	0.000442	20.790017
105.023931	-2.989500	3.867600	-11.561000	21.626171	0.000444	20.791483
106.022490	-2.987000	3.867200	-11.551000	21.631961	0.000443	20.790639
107.023068	-3.008500	3.867600	-11.634000	21.654304	0.000444	20.805886
108.022920	-2.986100	3.867500	-11.548000	21.647043	0.000444	20.787715
109.023256	-2.994700	3.866300	-11.577000	21.662481	0.000444	20.772818
110.021461	-2.998600	3.867700	-11.597000	21.674148	0.000446	20.813417
111.025699	-3.006600	3.867000	-11.626000	21.664180	0.000444	20.799174
112.024566	-3.004300	3.865700	-11.613000	21.692700	0.000445	20.820604
113.024114	-3.014300	3.863800	-11.646000	21.690682	0.000443	20.804359
114.029045	-3.012500	3.865500	-11.645000	21.681304	0.000443	20.800191
115.026288	-2.979000	3.866400	-11.517000	21.687666	0.000445	20.797074
116.026806	-2.977000	3.865600	-11.507000	21.704723	0.000443	20.776686
117.032913	-3.014300	3.864700	-11.648000	21.710857	0.000446	20.815067
118.032059	-3.014900	3.863200	-11.646000	21.727532	0.000444	20.789556
119.026856	-2.990300	3.865400	-11.558000	21.737807	0.000445	20.778503
120.032667	-3.026400	3.864200	-11.693000	21.741006	0.000446	20.789291
121.031931	-2.987300	3.864600	-11.543000	21.759034	0.000449	20.802592
122.028363	-3.028000	3.863200	-11.696000	21.773222	0.000447	20.800196
123.028738	-3.001100	3.864700	-11.598000	21.795888	0.000450	20.774044
124.028801	-2.998400	3.863200	-11.582000	21.767937	0.000445	20.784001
125.029020	-2.984700	3.864700	-11.534000	21.797758	0.000448	20.776864
126.029066	-3.006800	3.863100	-11.615000	21.802342	0.000446	20.791883
127.029294	-2.982700	3.863800	-11.523000	21.791224	0.000447	20.781230
128.030562	-2.988800	3.864000	-11.547000	21.809245	0.000447	20.812069
129.030536	-2.985000	3.862400	-11.528000	21.835632	0.000448	20.769253
130.029394	-3.007300	3.863100	-11.617000	21.829123	0.000449	20.765108
131.029971	-2.991400	3.863900	-11.558000	21.840665	0.000449	20.777609
132.032111	-3.019500	3.862400	-11.662000	21.837552	0.000449	20.769751
133.031064	-2.994600	3.862100	-11.564000	21.842713	0.000450	20.774918
134.032867	-2.995100	3.861900	-11.565000	21.847574	0.000449	20.780731
135.030979	-2.986300	3.863600	-11.537000	21.869568	0.000450	20.786624
136.033343	-2.988200	3.862300	-11.541000	21.873456	0.000450	20.787671
137.035771	-2.986300	3.862600	-11.533000	21.887476	0.000453	20.757607
138.032717	-2.985700	3.861800	-11.530000	21.862394	0.000450	20.775176
139.032095	-2.975600	3.861800	-11.490000	21.858604	0.000452	20.755735
140.037089	-2.993300	3.862700	-11.561000	21.884387	0.000451	20.774430
141.032753	-3.012100	3.860800	-11.628000	21.885660	0.000452	20.767170
142.033580	-2.997800	3.860800	-11.572000	21.882665	0.000451	20.758956
143.036546	-3.009000	3.860200	-11.614000	21.914808	0.000454	20.771216
144.034563	-3.004400	3.860700	-11.598000	21.921114	0.000453	20.768044
145.035742	-3.006500	3.860000	-11.604000	21.914740	0.000453	20.752655
146.036726	-3.022200	3.858800	-11.661000	21.944951	0.000452	20.747809
147.042947	-2.977500	3.860100	-11.492000	21.965750	0.000456	20.760568
148.039378	-3.001100	3.859600	-11.582000	21.952886	0.000454	20.785624
149.036855	-3.016800	3.859600	-11.643000	21.949916	0.000454	20.746614
150.040513	-3.000100	3.858500	-11.575000	21.971710	0.000454	20.769379
151.038058	-2.994300	3.859300	-11.555000	21.967521	0.000454	20.761393
152.043515	-3.007800	3.858200	-11.604000	21.977997	0.000454	20.752913
153.056775	-2.992100	3.859600	-11.548000	21.990791	0.000454	20.757660
154.040445	-2.997400	3.858600	-11.565000	21.988171	0.000454	20.738441
155.042706	-3.010800	3.858200	-11.614000	21.970793	0.000455	20.757081
156.040924	-3.001700	3.858300	-11.581000	21.996672	0.000454	20.757383
157.041803	-2.994400	3.858000	-11.552000	22.023104	0.000457	20.743065
158.042851	-3.005800	3.859100	-11.597000	22.018540	0.000454	20.757937
159.044866	-3.020700	3.856300	-11.647000	22.026967	0.000456	20.743613
160.043023	-3.010200	3.856700	-11.609000	22.043348	0.000457	20.746735
161.045644	-3.017500	3.856100	-11.635000	22.042253	0.000456	20.743268
162.042645	-3.006400	3.856900	-11.595000	22.061943	0.000460	20.749703
163.042615	-3.006500	3.857000	-11.595000	22.057059	0.000458	20.747659
164.041709	-3.001600	3.857200	-11.577000	22.072190	0.000457	20.757592
165.044364	-3.028200	3.856500	-11.676000	22.074983	0.000459	20.733834
166.045313	-3.026200	3.857100	-11.671000	22.085033	0.000458	20.732041
167.044340	-3.024100	3.855700	-11.659000	22.093712	0.000459	20.740730
168.044986	-3.006800	3.856000	-11.593000	22.111008	0.000460	20.745718
169.044907	-3.004300	3.855600	-11.583000	22.102237	0.000460	20.738833
170.044336	-3.003600	3.855600	-11.580000	22.085999	0.000461	20.741544
171.044921	-3.011400	3.855400	-11.609000	22.119207	0.000460	20.748237
172.047540	-3.006000	3.854000	-11.584000	22.128408	0.000461	20.720464
173.044049	-2.996300	3.854800	-11.549000	22.136109	0.000462	20.740502
174.044889	-3.001400	3.853800	-11.566000	22.147254	0.000461	20.754506
175.047373	-3.006800	3.854800	-11.590000	22.136982	0.000464	20.736635
176.048982	-3.010800	3.855300	-11.605000	22.141620	0.000462	20.739381
177.045639	-2.991200	3.855100	-11.530000	22.167145	0.000463	20.746445
178.044944	-2.998200	3.855500	-11.559000	22.165048	0.000463	20.741500
179.054202	-2.984000	3.855300	-11.504000	22.179926	0.000463	20.733636
180.044970	-2.988900	3.855300	-11.522000	22.176740	0.000461	20.729023
181.045001	-2.985300	3.853700	-11.504000	22.188407	0.000466	20.731222
182.050123	-3.025300	3.852500	-11.654000	22.220155	0.000464	20.726499
183.046731	-3.008700	3.852700	-11.591000	22.213353	0.000466	20.740552
184.046994	-2.990200	3.852400	-11.519000	22.223150	0.000465	20.718591
185.049737	-2.981400	3.853700	-11.488000	22.198445	0.000465	20.750756
186.048503	-3.001900	3.852100	-11.562000	22.206022	0.000465	20.743643
187.049113	-3.019400	3.853600	-11.634000	22.249565	0.000464	20.723703
188.049191	-2.979000	3.854300	-11.481000	22.241367	0.000465	20.720710
189.046775	-3.023800	3.851700	-11.646000	22.252406	0.000467	20.723229
190.048641	-2.995100	3.852700	-11.538000	22.271970	0.000465	20.730015
191.047245	-3.011400	3.851100	-11.597000	22.251207	0.000468	20.738625
192.046332	-2.982300	3.853200	-11.491000	22.258188	0.000467	20.723802
193.046758	-2.980800	3.850600	-11.478000	22.268403	0.000467	20.715064
194.046798	-2.979100	3.851000	-11.472000	22.276582	0.000468	20.723254
195.045637	-2.984700	3.851700	-11.495000	22.306064	0.000468	20.721006
196.046443	-2.995800	3.851200	-11.535000	22.298532	0.000469	20.724369
197.045881	-2.996100	3.851100	-11.538000	22.293156	0.000470	20.732737
198.047552	-2.975400	3.851100	-11.458000	22.315904	0.000469	20.731808
199.048235	-3.012800	3.850200	-11.599000	22.307282	0.000469	20.720803
200.048507	-3.000700	3.850700	-11.554000	22.324034	0.000467	20.721930
201.048969	-2.986800	3.851100	-11.502000	22.352174	0.000469	20.732090
202.048862	-2.999800	3.849000	-11.544000	22.358102	0.000469	20.731389
203.049488	-2.965400	3.850200	-11.415000	22.337520	0.000471	20.708880
204.050640	-3.014800	3.850100	-11.605000	22.377940	0.000469	20.700517
205.049958	-2.986300	3.848500	-11.492000	22.387336	0.000472	20.731265
206.051970	-2.985700	3.849000	-11.491000	22.368722	0.000472	20.695079
207.051283	-3.005200	3.848400	-11.564000	22.389531	0.000471	20.721135
208.048663	-3.002500	3.847400	-11.551000	22.385492	0.000471	20.728944
209.049445	-3.026400	3.846800	-11.641000	22.385442	0.000474	20.707082
210.050978	-3.019700	3.847500	-11.618000	22.426267	0.000474	20.718567
211.049736	-2.992600	3.849000	-11.517000	22.398626	0.000475	20.711276
212.051047	-3.002300	3.846900	-11.548000	22.405950	0.000474	20.731888
213.051486	-2.991800	3.847700	-11.510000	22.429009	0.000474	20.717994
214.052261	-2.980800	3.847600	-11.468000	22.432865	0.000474	20.722804
215.054126	-3.009000	3.845900	-11.572000	22.441221	0.000473	20.715524
216.055925	-2.982200	3.847300	-11.472000	22.452628	0.000475	20.696126
217.056911	-3.000100	3.847200	-11.541000	22.421808	0.000477	20.710308
218.053302	-2.991900	3.847000	-11.509000	22.475655	0.000475	20.732466
219.058783	-2.998200	3.847600	-11.535000	22.444511	0.000476	20.705068
220.055941	-2.962300	3.848100	-11.397000	22.460332	0.000475	20.718542
221.055823	-2.998500	3.845700	-11.531000	22.467784	0.000477	20.707513
222.058169	-3.026000	3.844600	-11.633000	22.466690	0.000477	20.701200
223.058872	-2.973700	3.846400	-11.438000	22.458296	0.000478	20.713184
224.055460	-2.980600	3.845900	-11.462000	22.459716	0.000479	20.715081
225.061792	-3.021500	3.845300	-11.618000	22.482910	0.000480	20.703220
226.057591	-3.010900	3.844600	-11.575000	22.499038	0.000478	20.695663
227.060700	-2.996400	3.845600	-11.521000	22.482338	0.000479	20.690318
228.058141	-3.002600	3.845500	-11.545000	22.498140	0.000480	20.703300
229.057863	-2.988200	3.844300	-11.487000	22.480801	0.000479	20.715333
230.059652	-3.001500	3.844300	-11.537000	22.508034	0.000482	20.707044
231.063389	-3.002900	3.844100	-11.543000	22.533446	0.000480	20.700726
232.058138	-2.996600	3.844800	-11.521000	22.544734	0.000481	20.709662
233.063282	-3.001100	3.844400	-11.537000	22.556324	0.000483	20.690447
234.061768	-3.030000	3.842900	-11.643000	22.549972	0.000483	20.703527
235.066535	-3.008600	3.843100	-11.562000	22.561956	0.000480	20.715056
236.060909	-2.998600	3.843400	-11.523000	22.571947	0.000482	20.690447
237.060329	-3.005200	3.842900	-11.548000	22.600549	0.000481	20.682109
238.060399	-2.990600	3.843800	-11.495000	22.571775	0.000484	20.698336
239.061405	-2.991400	3.842900	-11.493000	22.587195	0.000482	20.709039
240.063103	-2.994200	3.843600	-11.507000	22.605012	0.000483	20.685631
241.062252	-3.001900	3.842600	-11.535000	22.599952	0.000483	20.703324
242.062064	-3.016500	3.840500	-11.584000	22.608670	0.000485	20.709212
243.064397	-2.988800	3.841400	-11.480000	22.623874	0.000483	20.701680
244.062398	-2.991100	3.840600	-11.486000	22.627784	0.000483	20.687103
245.061619	-2.988000	3.841500	-11.477000	22.644058	0.000486	20.691549
246.062928	-2.994100	3.842000	-11.502000	22.625669	0.000486	20.697314
247.063969	-2.997400	3.840800	-11.511000	22.650857	0.000484	20.708319
248.064116	-3.001700	3.840100	-11.525000	22.638506	0.000485	20.693575
249.066093	-3.018300	3.840700	-11.591000	22.645429	0.000486	20.682490
250.066431	-2.984800	3.841500	-11.465000	22.691844	0.000486	20.678721
251.064306	-2.998900	3.840600	-11.517000	22.679739	0.000486	20.715911
252.064654	-2.987200	3.839100	-11.467000	22.668354	0.000487	20.691229
253.065187	-2.998100	3.840000	-11.512000	22.666441	0.000487	20.701168
254.065397	-2.985100	3.839600	-11.461000	22.691973	0.000486	20.694025
255.067565	-2.987600	3.840000	-11.472000	22.692028	0.000486	20.682225
256.066116	-2.987600	3.838800	-11.469000	22.713502	0.000488	20.710375
257.065997	-2.993500	3.839000	-11.491000	22.687713	0.000487	20.688334
258.066337	-3.009200	3.837700	-11.547000	22.711042	0.000488	20.700324
259.066363	-2.990700	3.839400	-11.482000	22.711786	0.000489	20.693482
260.076591	-3.025100	3.838600	-11.612000	22.700978	0.000489	20.682655
261.064782	-3.015600	3.839100	-11.576000	22.710243	0.000489	20.669649
262.066568	-3.001000	3.836400	-11.512000	22.724302	0.000490	20.681836
263.068947	-2.992100	3.838000	-11.483000	22.728605	0.000490	20.688992
264.065699	-2.985500	3.839300	-11.461000	22.770911	0.000492	20.685377
265.069794	-2.993900	3.837700	-11.489000	22.761745	0.000490	20.673824
266.070950	-3.025600	3.836600	-11.607000	22.764364	0.000489	20.696837
267.068421	-3.029800	3.836800	-11.624000	22.784889	0.000492	20.663342
268.069387	-2.980200	3.837500	-11.436000	22.770972	0.000491	20.680222
269.072510	-2.997000	3.836300	-11.497000	22.781932	0.000492	20.676502
270.067478	-3.007000	3.834900	-11.531000	22.792892	0.000492	20.669463
271.071864	-2.996300	3.836200	-11.493000	22.807172	0.000493	20.677130
272.071890	-2.989100	3.836700	-11.467000	22.807196	0.000495	20.663403
