LabVIEW Measurement	
Writer_Version	2
Reader_Version	2
Separator	Tab
Decimal_Separator	.
Multi_Headings	No
X_Columns	One
Time_Pref	Absolute
Operator	admin
Description	Clolumns are: time, Current, Voltage, Power, Battery Temp, and Chamber Temp
Date	2024/08/16
Time	13:59:35.9411449432373046875
***End_of_Header***	
	
Channels	6						
Samples	1	1	1	1	1	1	
Date	2024/08/22	2024/08/22	2024/08/22	2024/08/22	2024/08/22	2024/08/22	
Time	16:48:22.1002960205078125	16:48:22.1052951812744140625	16:48:22.1102957725524902344	16:48:22.0752949714660644531	16:48:22.0752949714660644531	16:48:22.0752949714660644531	
X_Dimension	Time	Time	Time	Time	Time	Time	
X0	0.0000000000000000E+0	0.0000000000000000E+0	0.0000000000000000E+0	0.0000000000000000E+0	0.0000000000000000E+0	0.0000000000000000E+0	
Delta_X	1.000000	1.000000	1.000000	1.000000	1.000000	1.000000	
***End_of_Header***							
X_Value	Untitled	Untitled 1	Untitled 2	Untitled 3	Untitled 4	Untitled 5	Comment
0.000000	0.032329	4.107900	0.132880	20.914543	0.000302	20.883251
0.995543	-3.016300	3.965300	-11.960000	20.928864	0.000301	20.900892
1.990539	-3.008000	3.958800	-11.907000	20.921849	0.000298	20.910944
2.989535	-2.996600	3.954200	-11.847000	20.902808	0.000301	20.915135
3.996563	-2.977900	3.950400	-11.763000	20.927608	0.000298	20.890153
5.011565	-3.005100	3.945900	-11.857000	20.914555	0.000297	20.881368
6.004566	-2.998800	3.943300	-11.823000	20.929450	0.000297	20.890573
6.998971	-3.003800	3.940900	-11.837000	20.926054	0.000299	20.893340
8.004002	-2.984200	3.938300	-11.751000	20.915622	0.000296	20.900450
9.001999	-2.993300	3.935700	-11.778000	20.928569	0.000295	20.889218
10.004953	-2.988100	3.934100	-11.755000	20.910726	0.000293	20.879434
10.992957	-3.005400	3.931400	-11.814000	20.941440	0.000295	20.894503
11.995955	-3.008900	3.929600	-11.823000	20.935373	0.000295	20.891755
13.005816	-3.005900	3.927600	-11.805000	20.929182	0.000292	20.892676
13.997820	-3.024900	3.925400	-11.873000	20.952559	0.000293	20.875754
15.002830	-3.012700	3.925500	-11.825000	20.954703	0.000292	20.904922
16.001143	-2.967300	3.926200	-11.650000	20.956797	0.000292	20.888052
16.995145	-3.000100	3.923500	-11.770000	20.970917	0.000291	20.889372
17.999229	-2.978600	3.922600	-11.682000	20.984662	0.000290	20.878938
19.003618	-2.989400	3.920000	-11.717000	20.965197	0.000290	20.893608
20.003353	-3.010100	3.919500	-11.796000	20.973553	0.000289	20.892956
21.003867	-2.990300	3.917800	-11.714000	20.971978	0.000290	20.876684
22.008862	-3.003800	3.916700	-11.764000	20.971302	0.000286	20.887387
23.006946	-3.031300	3.917000	-11.872000	21.005707	0.000286	20.875331
23.998950	-2.990400	3.916000	-11.709000	20.982750	0.000285	20.892671
24.998633	-3.015300	3.915100	-11.804000	20.979105	0.000285	20.890449
25.999711	-3.001500	3.914000	-11.747000	20.994372	0.000285	20.904769
27.008712	-2.992200	3.914300	-11.711000	21.020917	0.000281	20.890543
28.000708	-2.979800	3.913800	-11.661000	21.002052	0.000284	20.888269
29.001214	-2.979300	3.913000	-11.657000	21.033264	0.000282	20.910951
30.001214	-2.998900	3.911700	-11.730000	21.031440	0.000283	20.876887
31.006949	-2.964100	3.912300	-11.595000	21.018216	0.000279	20.899694
32.001433	-2.998100	3.909900	-11.721000	21.044011	0.000281	20.887563
33.002642	-3.000900	3.909300	-11.730000	21.047802	0.000278	20.880450
34.021492	-3.007600	3.908900	-11.755000	21.042811	0.000278	20.867872
35.011837	-3.012300	3.908600	-11.772000	21.054685	0.000281	20.881645
36.006841	-3.001900	3.908900	-11.733000	21.052712	0.000278	20.881568
37.009839	-2.993400	3.907400	-11.695000	21.049792	0.000278	20.893345
38.016519	-2.984600	3.907300	-11.661000	21.055630	0.000277	20.895865
39.008518	-3.012000	3.904900	-11.761000	21.066980	0.000276	20.879243
40.017552	-2.995500	3.904600	-11.695000	21.072842	0.000276	20.885581
41.015362	-2.990900	3.905800	-11.681000	21.097965	0.000276	20.898381
42.006732	-2.979600	3.904600	-11.633000	21.102954	0.000273	20.893414
43.007730	-3.001700	3.904500	-11.720000	21.110862	0.000273	20.884730
44.017592	-2.998400	3.904000	-11.705000	21.100782	0.000273	20.873225
45.007594	-2.996100	3.904700	-11.698000	21.084116	0.000272	20.876944
46.007599	-2.987600	3.902100	-11.657000	21.096015	0.000273	20.863717
47.008637	-3.000800	3.902000	-11.708000	21.114302	0.000273	20.874421
48.012755	-2.996000	3.902900	-11.691000	21.132240	0.000272	20.886674
49.013754	-3.004800	3.901600	-11.722000	21.133686	0.000271	20.881482
50.014133	-3.009200	3.901400	-11.739000	21.136106	0.000271	20.864463
51.021641	-2.987000	3.902100	-11.654000	21.135907	0.000269	20.866161
52.010642	-3.013000	3.900100	-11.750000	21.144190	0.000268	20.871127
53.008531	-2.986200	3.900300	-11.647000	21.164047	0.000269	20.873447
54.012525	-3.007800	3.900100	-11.730000	21.173153	0.000268	20.881606
55.012526	-2.984500	3.900000	-11.639000	21.158459	0.000269	20.863590
56.012815	-2.990400	3.899200	-11.660000	21.156789	0.000268	20.876618
57.016233	-2.995100	3.898700	-11.676000	21.163276	0.000268	20.866037
58.011238	-2.990600	3.898300	-11.657000	21.179442	0.000269	20.855656
59.020691	-2.990300	3.897300	-11.653000	21.177696	0.000266	20.861971
60.020270	-2.994200	3.897200	-11.668000	21.186927	0.000268	20.867885
61.016269	-3.020500	3.897200	-11.769000	21.175926	0.000267	20.870631
62.016926	-3.016000	3.896100	-11.750000	21.196084	0.000266	20.860450
63.018424	-3.019700	3.897000	-11.768000	21.202796	0.000265	20.846776
64.018420	-3.014500	3.895900	-11.743000	21.210729	0.000267	20.861824
65.020561	-3.016900	3.896500	-11.754000	21.190397	0.000265	20.864244
66.018385	-2.995300	3.895400	-11.667000	21.198955	0.000264	20.863322
67.019390	-3.004100	3.896000	-11.703000	21.228218	0.000267	20.873154
68.020059	-2.993600	3.896300	-11.662000	21.230014	0.000264	20.853141
69.019109	-2.994400	3.895700	-11.665000	21.230114	0.000265	20.849922
70.020322	-2.999600	3.894700	-11.682000	21.221408	0.000265	20.857808
71.019851	-3.004300	3.894200	-11.699000	21.222007	0.000263	20.838494
72.020341	-2.978400	3.894000	-11.596000	21.252915	0.000265	20.857559
73.022342	-3.008300	3.893400	-11.712000	21.273171	0.000264	20.872607
74.023280	-2.992600	3.894400	-11.653000	21.274296	0.000265	20.859508
75.023277	-2.989600	3.894000	-11.640000	21.263095	0.000264	20.854467
76.024280	-2.997500	3.894800	-11.674000	21.255337	0.000263	20.855241
77.026279	-2.976200	3.894200	-11.590000	21.268259	0.000264	20.852520
78.041070	-3.002600	3.892700	-11.688000	21.277663	0.000263	20.833480
79.024073	-2.982300	3.893100	-11.609000	21.262347	0.000264	20.852296
80.025075	-3.017000	3.892200	-11.742000	21.292906	0.000265	20.837824
81.043070	-2.973400	3.892900	-11.574000	21.296473	0.000263	20.836651
82.035074	-2.990800	3.892400	-11.640000	21.299118	0.000263	20.844512
83.031077	-3.007800	3.892500	-11.707000	21.317226	0.000264	20.846507
84.034106	-3.009500	3.891200	-11.710000	21.316752	0.000261	20.841292
85.026949	-2.987300	3.891800	-11.625000	21.312862	0.000262	20.820331
86.028950	-3.008700	3.890300	-11.704000	21.317502	0.000262	20.835404
87.032078	-2.983900	3.890700	-11.609000	21.312763	0.000262	20.839197
88.026302	-3.018700	3.890800	-11.744000	21.344542	0.000262	20.832584
89.030318	-3.008800	3.889900	-11.703000	21.328302	0.000261	20.841467
90.041297	-3.014400	3.890300	-11.726000	21.354743	0.000259	20.837101
91.031788	-3.009700	3.890200	-11.707000	21.341774	0.000262	20.835505
92.031794	-3.018600	3.890000	-11.741000	21.366942	0.000262	20.832236
93.030788	-2.983000	3.890200	-11.603000	21.337658	0.000260	20.820008
94.027818	-2.982900	3.889300	-11.601000	21.369561	0.000262	20.813046
95.028818	-2.997400	3.889200	-11.657000	21.361081	0.000262	20.820208
96.029837	-2.990900	3.889500	-11.632000	21.379863	0.000259	20.823353
97.034535	-2.999700	3.890200	-11.668000	21.388867	0.000261	20.839000
98.031641	-3.011800	3.889000	-11.712000	21.381860	0.000258	20.837204
99.031641	-2.984800	3.889200	-11.608000	21.385627	0.000258	20.826749
100.035913	-2.986600	3.889200	-11.615000	21.401018	0.000261	20.827449
101.030914	-3.007400	3.887600	-11.691000	21.402438	0.000259	20.831715
102.031916	-3.004600	3.886900	-11.678000	21.408751	0.000261	20.827599
103.039915	-3.001600	3.888800	-11.671000	21.409574	0.000261	20.809931
104.033793	-3.008000	3.887600	-11.693000	21.413541	0.000261	20.830495
105.034800	-3.011900	3.887800	-11.709000	21.411072	0.000260	20.817594
106.046961	-3.010000	3.886100	-11.696000	21.414066	0.000261	20.809210
107.050208	-2.991300	3.887700	-11.628000	21.438733	0.000260	20.800700
108.038198	-3.004900	3.886500	-11.677000	21.428857	0.000259	20.820690
109.035407	-3.002000	3.886300	-11.666000	21.441554	0.000259	20.821540
110.038403	-3.016700	3.886600	-11.723000	21.444149	0.000260	20.818446
111.034894	-2.996900	3.886100	-11.646000	21.445621	0.000259	20.826558
112.035950	-3.007300	3.885200	-11.682000	21.468717	0.000260	20.814106
113.037653	-2.991400	3.886700	-11.625000	21.465002	0.000258	20.810388
114.035655	-2.998800	3.886000	-11.653000	21.460016	0.000258	20.820098
115.036662	-3.027300	3.884400	-11.757000	21.457823	0.000261	20.819327
116.036210	-3.005200	3.884000	-11.672000	21.462062	0.000262	20.811240
117.035213	-2.989700	3.884500	-11.612000	21.473761	0.000260	20.815359
118.041724	-3.012200	3.884200	-11.699000	21.496333	0.000260	20.808547
119.037950	-3.005800	3.884700	-11.676000	21.489576	0.000261	20.807950
120.035950	-3.015400	3.884100	-11.711000	21.480872	0.000259	20.808250
121.035949	-3.001400	3.883900	-11.656000	21.487908	0.000258	20.809126
122.040638	-2.966100	3.885100	-11.522000	21.522924	0.000260	20.817137
123.035642	-2.999800	3.883200	-11.647000	21.499034	0.000259	20.811249
124.036640	-2.987900	3.883100	-11.602000	21.504945	0.000261	20.796776
125.045395	-2.991700	3.883500	-11.618000	21.521331	0.000259	20.797051
126.038085	-2.990900	3.883500	-11.614000	21.536870	0.000261	20.792685
127.040086	-2.990900	3.883600	-11.614000	21.528841	0.000260	20.787970
128.036417	-3.005600	3.883100	-11.671000	21.538469	0.000261	20.808509
129.043418	-2.996600	3.882700	-11.635000	21.538845	0.000262	20.810782
130.047327	-3.003800	3.882900	-11.662000	21.551716	0.000260	20.793316
131.036792	-2.988200	3.882100	-11.600000	21.544634	0.000262	20.778643
132.039376	-2.990700	3.882300	-11.610000	21.565285	0.000259	20.785557
133.037376	-3.010900	3.882500	-11.689000	21.557454	0.000259	20.789575
134.042493	-3.000700	3.882000	-11.649000	21.590750	0.000262	20.780219
135.058847	-3.000600	3.882500	-11.649000	21.581997	0.000260	20.787108
136.042847	-3.013800	3.882500	-11.700000	21.562971	0.000262	20.791302
137.040844	-2.994000	3.881700	-11.621000	21.577212	0.000260	20.768094
138.041844	-2.987200	3.881600	-11.594000	21.585219	0.000261	20.799340
139.041847	-3.006900	3.880800	-11.669000	21.593176	0.000260	20.802561
140.050149	-2.999400	3.880400	-11.637000	21.584498	0.000260	20.796248
141.041597	-2.984000	3.882200	-11.583000	21.597591	0.000262	20.803660
142.042603	-3.020500	3.880800	-11.721000	21.594375	0.000260	20.789063
143.041595	-3.002100	3.880800	-11.650000	21.607244	0.000262	20.785345
144.041766	-2.996900	3.881100	-11.630000	21.610188	0.000262	20.784498
145.044770	-3.033200	3.879300	-11.766000	21.619765	0.000261	20.769900
146.047931	-3.006500	3.880400	-11.666000	21.623307	0.000261	20.781505
147.041725	-2.998400	3.879700	-11.632000	21.622436	0.000262	20.784426
148.043729	-3.013200	3.879800	-11.689000	21.621514	0.000264	20.787772
149.058727	-3.015700	3.879300	-11.697000	21.618872	0.000263	20.760945
150.041223	-3.001100	3.880200	-11.644000	21.647751	0.000264	20.792216
151.043222	-2.989800	3.879900	-11.599000	21.649596	0.000262	20.777942
152.043458	-3.023400	3.878900	-11.725000	21.621145	0.000263	20.782186
153.096316	-3.000500	3.878000	-11.635000	21.639998	0.000263	20.779716
154.043310	-3.004400	3.879000	-11.653000	21.656433	0.000262	20.774826
155.043426	-2.999100	3.879600	-11.634000	21.672095	0.000263	20.790974
156.044975	-3.007900	3.878200	-11.664000	21.660750	0.000265	20.770611
157.044981	-3.021700	3.877300	-11.714000	21.658608	0.000262	20.780796
158.056978	-3.000400	3.878700	-11.636000	21.684618	0.000265	20.780273
159.070645	-3.006900	3.878300	-11.661000	21.678610	0.000264	20.781847
160.044649	-3.006800	3.877300	-11.656000	21.693996	0.000265	20.777804
161.048226	-3.008500	3.876800	-11.663000	21.686293	0.000265	20.790010
162.089338	-2.999700	3.877700	-11.631000	21.686791	0.000265	20.764904
163.047339	-3.010900	3.876300	-11.670000	21.716542	0.000265	20.773341
164.057509	-3.009200	3.877800	-11.669000	21.697941	0.000266	20.771796
165.053803	-3.000700	3.876500	-11.631000	21.719462	0.000267	20.757297
166.049805	-3.000200	3.876300	-11.628000	21.699164	0.000266	20.778709
167.053804	-2.997300	3.875400	-11.615000	21.728190	0.000267	20.771723
168.055269	-2.990900	3.877100	-11.595000	21.733779	0.000267	20.751237
169.051331	-3.001400	3.875600	-11.632000	21.742554	0.000268	20.766183
170.051331	-3.023300	3.875200	-11.714000	21.725899	0.000266	20.756153
171.054163	-3.005600	3.876000	-11.649000	21.735374	0.000269	20.763265
172.055848	-3.008100	3.875600	-11.657000	21.727148	0.000269	20.783008
173.052848	-3.028300	3.875300	-11.735000	21.728642	0.000268	20.760795
174.052167	-3.005600	3.874300	-11.644000	21.737644	0.000269	20.754157
175.057300	-2.996900	3.875700	-11.614000	21.772553	0.000269	20.759697
176.052302	-3.009400	3.874900	-11.660000	21.757567	0.000269	20.766036
177.056983	-3.015200	3.875300	-11.684000	21.768640	0.000271	20.754833
178.054902	-3.000900	3.874800	-11.628000	21.784670	0.000268	20.765187
179.058902	-2.989900	3.875300	-11.586000	21.761657	0.000271	20.751637
180.064096	-3.001500	3.874200	-11.627000	21.773424	0.000269	20.747767
181.053095	-2.998300	3.874000	-11.614000	21.775545	0.000271	20.754631
182.054574	-2.995200	3.873900	-11.602000	21.793097	0.000272	20.755128
183.055459	-3.021200	3.873900	-11.702000	21.807357	0.000271	20.764660
184.054457	-3.005900	3.872500	-11.639000	21.792871	0.000271	20.757274
185.066457	-3.013200	3.872900	-11.669000	21.799202	0.000272	20.753179
186.055490	-2.991700	3.873600	-11.588000	21.823487	0.000272	20.769899
187.055214	-2.980200	3.873300	-11.542000	21.812242	0.000274	20.791361
188.058157	-3.020600	3.871100	-11.693000	21.836926	0.000273	20.764383
189.059860	-3.001800	3.873000	-11.625000	21.828423	0.000273	20.771521
190.056866	-3.000300	3.872700	-11.618000	21.839742	0.000272	20.760563
191.058867	-3.005200	3.871800	-11.635000	21.832687	0.000272	20.775314
192.058862	-3.004300	3.872400	-11.633000	21.848792	0.000274	20.761562
193.058522	-2.999100	3.872100	-11.612000	21.854975	0.000273	20.769173
194.058521	-2.976800	3.871200	-11.523000	21.839192	0.000271	20.751952
195.057647	-2.991900	3.871900	-11.583000	21.859239	0.000275	20.746413
196.059895	-2.997600	3.870300	-11.600000	21.871507	0.000273	20.756797
197.059233	-3.011700	3.870400	-11.655000	21.841461	0.000274	20.762284
198.061225	-3.010500	3.871400	-11.654000	21.855350	0.000274	20.753426
199.066931	-3.012900	3.870700	-11.660000	21.883250	0.000273	20.779457
200.063259	-2.978400	3.871000	-11.528000	21.890853	0.000273	20.740598
201.062333	-3.023000	3.869600	-11.697000	21.886240	0.000274	20.765854
202.064325	-2.987400	3.871500	-11.563000	21.890679	0.000276	20.737105
203.062858	-3.010100	3.868700	-11.645000	21.905490	0.000277	20.779906
204.069862	-2.989900	3.870600	-11.571000	21.895418	0.000275	20.753703
205.066525	-2.998100	3.869600	-11.600000	21.884973	0.000275	20.776439
206.063861	-3.004600	3.869800	-11.626000	21.904244	0.000276	20.770124
207.066865	-2.984200	3.870600	-11.550000	21.905118	0.000277	20.755826
208.065093	-2.996400	3.870000	-11.595000	21.935733	0.000277	20.780781
209.063103	-3.016300	3.869100	-11.669000	21.926211	0.000276	20.768405
210.067609	-2.984000	3.869400	-11.546000	21.922921	0.000277	20.760371
211.063392	-3.004900	3.867900	-11.622000	21.939153	0.000278	20.777566
212.064829	-3.000700	3.869100	-11.609000	21.941322	0.000279	20.787325
213.065837	-3.006200	3.868000	-11.627000	21.963986	0.000280	20.764492
214.067831	-3.003400	3.869600	-11.622000	21.946834	0.000278	20.768660
215.082984	-3.013800	3.869300	-11.661000	21.949628	0.000280	20.770034
216.066985	-2.996000	3.868800	-11.590000	21.983259	0.000279	20.768612
217.067984	-3.006300	3.868100	-11.627000	21.951625	0.000279	20.777723
218.079426	-2.992900	3.867700	-11.575000	21.985481	0.000281	20.791700
219.074430	-3.013700	3.868100	-11.656000	21.965761	0.000281	20.748725
220.076951	-2.975100	3.867800	-11.506000	21.959081	0.000278	20.775230
221.074600	-3.021800	3.866500	-11.683000	21.969254	0.000281	20.768343
222.067600	-2.998100	3.866000	-11.588000	21.987952	0.000283	20.769517
223.067489	-3.000800	3.866800	-11.603000	21.995108	0.000283	20.757240
224.066369	-3.002900	3.866800	-11.611000	22.005530	0.000283	20.777156
225.068371	-2.992400	3.868200	-11.574000	22.027169	0.000283	20.779852
226.076372	-2.980300	3.866600	-11.522000	22.006080	0.000283	20.764430
227.069148	-3.003300	3.864800	-11.607000	22.022909	0.000283	20.786019
228.069174	-3.011700	3.865700	-11.642000	22.012789	0.000286	20.757395
229.070176	-3.005100	3.864900	-11.613000	22.038392	0.000285	20.791087
230.069963	-2.996100	3.865800	-11.581000	22.025006	0.000285	20.770100
231.073966	-3.008400	3.865300	-11.627000	22.025032	0.000286	20.772497
232.071968	-2.989500	3.864500	-11.553000	22.032712	0.000286	20.773547
233.073503	-3.024900	3.864800	-11.690000	22.017679	0.000285	20.780309
234.072848	-3.006200	3.865200	-11.619000	22.055200	0.000284	20.774722
235.072937	-3.009300	3.865100	-11.629000	22.044306	0.000284	20.786576
236.072704	-3.003100	3.864400	-11.604000	22.074021	0.000286	20.782184
237.073359	-2.996100	3.864600	-11.578000	22.057420	0.000289	20.766514
238.073359	-3.010000	3.865000	-11.633000	22.067143	0.000288	20.775773
239.073657	-2.989100	3.864400	-11.550000	22.070485	0.000287	20.775325
240.080648	-3.010600	3.863400	-11.629000	22.069064	0.000288	20.749246
241.075648	-3.007500	3.864200	-11.619000	22.085918	0.000287	20.767541
242.076687	-2.994900	3.863900	-11.571000	22.092823	0.000287	20.775403
243.074113	-3.007200	3.865000	-11.622000	22.087764	0.000287	20.774132
244.076114	-2.987100	3.864100	-11.541000	22.103743	0.000288	20.768317
245.076291	-3.000900	3.863200	-11.592000	22.110574	0.000290	20.775156
246.078316	-3.020000	3.863400	-11.666000	22.098959	0.000290	20.779175
247.081325	-3.016500	3.862600	-11.651000	22.113117	0.000288	20.773910
248.087616	-3.008700	3.862400	-11.619000	22.117632	0.000290	20.786964
249.077248	-2.992500	3.862700	-11.559000	22.120273	0.000291	20.779177
250.080251	-3.000200	3.862600	-11.588000	22.125358	0.000290	20.798019
251.077250	-3.005800	3.861300	-11.605000	22.146023	0.000291	20.798793
252.078547	-3.009600	3.861500	-11.621000	22.131467	0.000291	20.787539
253.082555	-3.007300	3.861600	-11.613000	22.132640	0.000293	20.785868
254.084549	-2.980400	3.861200	-11.507000	22.158464	0.000292	20.777109
255.082553	-3.008500	3.861800	-11.617000	22.150787	0.000292	20.781751
256.081875	-3.004500	3.861100	-11.600000	22.163400	0.000291	20.783948
257.087906	-3.006600	3.860700	-11.606000	22.170531	0.000294	20.773069
258.085589	-2.994000	3.862200	-11.562000	22.168512	0.000295	20.787644
259.082592	-3.027800	3.861000	-11.689000	22.168365	0.000294	20.774694
260.083593	-2.986700	3.861200	-11.532000	22.187957	0.000295	20.780560
261.084331	-2.986100	3.861800	-11.531000	22.170834	0.000294	20.792339
262.088133	-2.985200	3.860800	-11.525000	22.189552	0.000295	20.773147
263.084133	-3.007500	3.860000	-11.608000	22.196955	0.000295	20.784353
264.084993	-2.990600	3.859200	-11.540000	22.215574	0.000295	20.769329
265.083837	-3.006500	3.859400	-11.601000	22.189305	0.000295	20.793289
266.084307	-3.007000	3.859400	-11.605000	22.217744	0.000296	20.780511
267.086384	-3.006800	3.859600	-11.604000	22.217147	0.000296	20.796508
268.088978	-2.992700	3.859500	-11.549000	22.214779	0.000298	20.803621
269.089004	-2.976200	3.859100	-11.485000	22.228713	0.000297	20.782484
270.087002	-2.990900	3.859100	-11.542000	22.227742	0.000298	20.807591
271.102377	-2.999200	3.858600	-11.572000	22.240005	0.000297	20.800904
272.086377	-3.005700	3.858500	-11.597000	22.233077	0.000300	20.795390
