LabVIEW Measurement	
Writer_Version	2
Reader_Version	2
Separator	Tab
Decimal_Separator	.
Multi_Headings	No
X_Columns	One
Time_Pref	Absolute
Operator	admin
Description	Clolumns are: time, Current, Voltage, Power, Battery Temp, and Chamber Temp
Date	2024/08/16
Time	13:07:17.8513970375061035156
***End_of_Header***	
	
Channels	6						
Samples	1	1	1	1	1	1	
Date	2024/08/31	2024/08/31	2024/08/31	2024/08/31	2024/08/31	2024/08/31	
Time	08:36:39.6121912002563476562	08:36:39.6202039718627929687	08:36:39.6262097358703613281	08:36:39.5962128639221191406	08:36:39.5962128639221191406	08:36:39.5962128639221191406	
X_Dimension	Time	Time	Time	Time	Time	Time	
X0	0.0000000000000000E+0	0.0000000000000000E+0	0.0000000000000000E+0	0.0000000000000000E+0	0.0000000000000000E+0	0.0000000000000000E+0	
Delta_X	1.000000	1.000000	1.000000	1.000000	1.000000	1.000000	
***End_of_Header***							
X_Value	Untitled	Untitled 1	Untitled 2	Untitled 3	Untitled 4	Untitled 5	Comment
0.000000	0.005393	4.089300	0.022211	20.803258	0.000460	20.861103
1.000782	-3.008600	3.926400	-11.812000	20.836747	0.000462	20.839118
2.001323	-2.995200	3.921900	-11.745000	20.829835	0.000461	20.840266
3.001009	-3.006100	3.917700	-11.776000	20.801386	0.000458	20.844533
4.001631	-3.004700	3.913600	-11.758000	20.834625	0.000459	20.853590
5.003594	-3.024500	3.908400	-11.820000	20.829984	0.000457	20.849423
6.002022	-3.010600	3.907400	-11.763000	20.845305	0.000455	20.828710
7.006548	-3.013200	3.905400	-11.767000	20.840988	0.000457	20.859479
8.003456	-3.010900	3.904500	-11.755000	20.840139	0.000458	20.844880
9.002918	-2.990600	3.902200	-11.669000	20.848773	0.000453	20.846403
10.005331	-3.007800	3.900000	-11.729000	20.864670	0.000454	20.845230
11.004229	-3.007800	3.899300	-11.727000	20.857931	0.000452	20.848448
12.004822	-3.012800	3.896000	-11.736000	20.859653	0.000455	20.851592
13.007401	-2.993400	3.896300	-11.663000	20.866490	0.000451	20.849422
14.005187	-2.992600	3.896100	-11.659000	20.886403	0.000453	20.840412
15.005772	-2.989300	3.894400	-11.640000	20.894537	0.000451	20.873676
16.006066	-2.993500	3.893500	-11.655000	20.897132	0.000450	20.820798
17.007640	-3.007300	3.892100	-11.704000	20.898005	0.000453	20.833050
18.013334	-3.003700	3.891300	-11.688000	20.901598	0.000451	20.843281
19.011503	-3.010100	3.890900	-11.711000	20.900026	0.000451	20.839812
20.012204	-3.006400	3.889000	-11.691000	20.929894	0.000448	20.846450
21.009017	-3.015200	3.889100	-11.725000	20.958340	0.000451	20.848820
22.010068	-3.010900	3.888700	-11.708000	20.961383	0.000449	20.842382
23.009303	-3.010900	3.887300	-11.703000	20.949531	0.000449	20.847123
24.012045	-2.978000	3.887600	-11.576000	20.946861	0.000448	20.827383
25.012195	-2.996000	3.885500	-11.640000	20.971139	0.000448	20.850241
26.012408	-2.982000	3.885900	-11.586000	20.961333	0.000447	20.848021
27.015753	-3.008800	3.884500	-11.687000	20.989502	0.000449	20.824038
28.013467	-2.985700	3.884000	-11.596000	20.986633	0.000447	20.841556
29.019639	-3.022800	3.884000	-11.739000	21.014752	0.000447	20.825111
30.014923	-2.981000	3.884300	-11.577000	21.001678	0.000447	20.825310
31.016186	-2.996000	3.883000	-11.633000	20.988204	0.000446	20.836016
32.017857	-3.004800	3.882500	-11.665000	21.011134	0.000446	20.833819
33.018011	-3.001800	3.882000	-11.652000	21.025505	0.000447	20.825434
34.017273	-2.996300	3.882200	-11.631000	21.046788	0.000447	20.828704
35.019262	-3.005000	3.882200	-11.665000	21.045815	0.000447	20.821567
36.017753	-2.995200	3.879900	-11.621000	21.057665	0.000444	20.836264
37.017440	-3.003700	3.880800	-11.655000	21.054770	0.000445	20.811558
38.020314	-3.015800	3.880100	-11.700000	21.077076	0.000445	20.821067
39.018483	-3.001000	3.880500	-11.644000	21.071837	0.000442	20.822938
40.024004	-3.005100	3.878400	-11.654000	21.070862	0.000444	20.841403
41.018365	-2.989000	3.879700	-11.596000	21.079396	0.000443	20.817223
42.019223	-2.981400	3.879200	-11.564000	21.100751	0.000442	20.834790
43.019462	-2.973500	3.879700	-11.535000	21.088751	0.000445	20.805718
44.018659	-2.987600	3.879000	-11.588000	21.105192	0.000441	20.825008
45.020873	-3.008900	3.877700	-11.667000	21.121459	0.000442	20.827528
46.020375	-3.021000	3.876700	-11.710000	21.131562	0.000444	20.825307
47.020163	-2.996600	3.876700	-11.616000	21.125075	0.000442	20.824508
48.020278	-3.005400	3.876000	-11.648000	21.151570	0.000444	20.820665
49.020587	-3.005900	3.875900	-11.650000	21.143387	0.000442	20.832867
50.020119	-2.987000	3.876400	-11.577000	21.174122	0.000443	20.844171
51.020786	-2.983800	3.876100	-11.564000	21.174920	0.000443	20.824108
52.020753	-2.978400	3.877000	-11.546000	21.164966	0.000444	20.826952
53.020414	-2.987300	3.876300	-11.579000	21.178638	0.000445	20.833042
54.021146	-3.015900	3.875200	-11.686000	21.189115	0.000444	20.830721
55.019276	-3.008600	3.874100	-11.655000	21.200665	0.000444	20.807662
56.023321	-2.999600	3.875300	-11.624000	21.208074	0.000442	20.804642
57.020005	-3.004000	3.875100	-11.639000	21.213088	0.000442	20.812029
58.021374	-3.015200	3.874600	-11.680000	21.224165	0.000442	20.806040
59.022080	-2.990100	3.875100	-11.586000	21.249085	0.000443	20.809159
60.022405	-2.988600	3.874200	-11.578000	21.242575	0.000442	20.818293
61.026073	-3.003900	3.873300	-11.634000	21.270514	0.000443	20.793612
62.025203	-3.014100	3.873700	-11.675000	21.249435	0.000442	20.832268
63.023462	-2.998800	3.873800	-11.616000	21.282737	0.000442	20.825281
64.024963	-3.011600	3.873900	-11.666000	21.286354	0.000444	20.809459
65.025603	-3.013000	3.871800	-11.665000	21.280592	0.000442	20.812229
66.024601	-2.993600	3.872900	-11.593000	21.273658	0.000444	20.798654
67.027859	-3.020700	3.871900	-11.695000	21.296482	0.000444	20.795883
68.026546	-2.997000	3.872800	-11.606000	21.306810	0.000443	20.812854
69.027036	-3.003800	3.871900	-11.629000	21.313694	0.000442	20.814051
70.026157	-3.006200	3.871500	-11.637000	21.318159	0.000444	20.820889
71.026838	-3.031200	3.871200	-11.734000	21.361163	0.000444	20.803695
72.027437	-3.024000	3.870300	-11.703000	21.334523	0.000442	20.801699
73.026165	-2.995100	3.872100	-11.596000	21.343503	0.000443	20.797881
74.028605	-2.988400	3.871600	-11.569000	21.365802	0.000443	20.803595
75.029335	-3.022300	3.871300	-11.699000	21.368147	0.000442	20.803096
76.028384	-3.019400	3.870500	-11.686000	21.375555	0.000445	20.801973
77.032306	-3.014000	3.870800	-11.666000	21.387727	0.000443	20.814152
78.031229	-3.007800	3.870200	-11.639000	21.392117	0.000443	20.814751
79.030134	-2.980700	3.870500	-11.536000	21.381267	0.000443	20.800576
80.030914	-2.992400	3.870600	-11.581000	21.405112	0.000442	20.802622
81.030995	-2.987300	3.870500	-11.562000	21.430079	0.000442	20.801525
82.030827	-2.971600	3.869800	-11.499000	21.433347	0.000443	20.788198
83.033978	-3.022500	3.868600	-11.692000	21.438959	0.000445	20.805193
84.031561	-3.007400	3.868800	-11.634000	21.433572	0.000443	20.799803
85.033128	-3.006400	3.867300	-11.626000	21.454573	0.000443	20.812755
86.035533	-2.998000	3.867700	-11.595000	21.464624	0.000444	20.814752
87.033105	-2.996900	3.868500	-11.593000	21.472081	0.000443	20.795186
88.039662	-2.998400	3.869300	-11.601000	21.457166	0.000443	20.813927
89.035616	-3.016600	3.867900	-11.667000	21.473552	0.000444	20.790020
90.036505	-2.987000	3.868200	-11.553000	21.480985	0.000444	20.809785
91.038914	-2.999700	3.868100	-11.602000	21.511586	0.000442	20.807689
92.036863	-2.985000	3.869200	-11.548000	21.528146	0.000443	20.809086
93.040536	-2.981200	3.868500	-11.532000	21.510065	0.000443	20.792890
94.038884	-2.972700	3.867300	-11.495000	21.512185	0.000446	20.795011
95.037287	-3.004300	3.867900	-11.620000	21.522934	0.000444	20.789646
96.037591	-3.015100	3.867800	-11.660000	21.536850	0.000446	20.806890
97.037569	-3.037100	3.867000	-11.744000	21.523334	0.000446	20.764915
98.038662	-2.999800	3.866500	-11.598000	21.535554	0.000445	20.781885
99.041112	-3.017500	3.865300	-11.662000	21.568947	0.000446	20.814352
100.039341	-3.012000	3.866500	-11.645000	21.569546	0.000446	20.769907
101.039395	-2.995400	3.865700	-11.579000	21.584160	0.000446	20.782159
102.041543	-3.008500	3.865100	-11.628000	21.582414	0.000445	20.792266
103.043075	-2.996000	3.866400	-11.583000	21.599222	0.000446	20.804819
104.043668	-2.993700	3.867300	-11.577000	21.601542	0.000445	20.781062
105.041601	-2.974100	3.866900	-11.500000	21.632689	0.000446	20.799903
106.042512	-2.967800	3.866200	-11.472000	21.628051	0.000448	20.790520
107.041551	-2.985300	3.866500	-11.542000	21.618949	0.000444	20.781411
108.041744	-2.993800	3.865000	-11.570000	21.625731	0.000446	20.775870
109.042609	-2.986200	3.865600	-11.542000	21.657202	0.000447	20.792665
110.043638	-3.017900	3.864200	-11.660000	21.679171	0.000445	20.792366
111.041486	-3.007600	3.865000	-11.623000	21.671790	0.000447	20.779289
112.042692	-2.987700	3.866600	-11.551000	21.690442	0.000447	20.791317
113.043252	-2.991000	3.865400	-11.561000	21.678597	0.000448	20.797481
114.046150	-2.980000	3.865100	-11.517000	21.687874	0.000449	20.788273
115.045193	-2.992900	3.863300	-11.562000	21.691988	0.000448	20.757776
116.044422	-2.981700	3.863700	-11.520000	21.687699	0.000449	20.782882
117.045398	-3.002600	3.864700	-11.603000	21.699469	0.000449	20.790394
118.047720	-3.009300	3.864800	-11.629000	21.746297	0.000448	20.791741
119.048488	-2.994000	3.865100	-11.571000	21.722808	0.000448	20.782457
120.053124	-2.993500	3.862600	-11.562000	21.731560	0.000448	20.778889
121.048268	-2.991000	3.863000	-11.554000	21.743230	0.000448	20.784404
122.049995	-3.004500	3.862900	-11.605000	21.736373	0.000451	20.778964
123.049917	-3.008900	3.861000	-11.616000	21.765621	0.000449	20.787848
124.050240	-2.997000	3.863700	-11.579000	21.779310	0.000451	20.767409
125.050785	-3.008100	3.862800	-11.619000	21.769112	0.000451	20.754357
126.054846	-2.998600	3.862600	-11.582000	21.772752	0.000450	20.788347
127.050997	-3.015300	3.860600	-11.640000	21.797986	0.000450	20.785153
128.050581	-2.985600	3.862300	-11.531000	21.784820	0.000452	20.757276
129.056030	-2.974700	3.862900	-11.490000	21.827906	0.000452	20.760096
130.051287	-3.004700	3.861300	-11.601000	21.825861	0.000452	20.768008
131.052873	-2.992700	3.861100	-11.554000	21.838153	0.000453	20.761818
132.055200	-3.003000	3.860600	-11.593000	21.832569	0.000453	20.773773
133.051687	-2.998800	3.861600	-11.579000	21.840397	0.000452	20.767384
134.051866	-3.020800	3.860300	-11.660000	21.833391	0.000454	20.766535
135.052943	-3.006700	3.860800	-11.608000	21.850969	0.000454	20.770853
136.054000	-2.985700	3.860600	-11.526000	21.862363	0.000453	20.770878
137.051734	-3.014700	3.859900	-11.634000	21.858399	0.000454	20.769281
138.052975	-2.997000	3.859800	-11.566000	21.866851	0.000455	20.768258
139.053282	-2.976200	3.861200	-11.491000	21.884878	0.000454	20.777293
140.054106	-3.018100	3.859500	-11.648000	21.886074	0.000453	20.760472
141.054436	-2.989900	3.859800	-11.538000	21.892631	0.000454	20.764664
142.055409	-3.033300	3.859200	-11.705000	21.910233	0.000453	20.761420
143.053254	-3.022600	3.859500	-11.665000	21.927012	0.000456	20.765888
144.054322	-2.996600	3.859500	-11.564000	21.932621	0.000457	20.776244
145.055059	-2.981500	3.859100	-11.504000	21.940001	0.000455	20.750440
146.054449	-2.995000	3.860200	-11.560000	21.969219	0.000453	20.754558
147.058513	-2.993400	3.858500	-11.549000	21.970541	0.000453	20.749242
148.056558	-3.033500	3.859400	-11.706000	21.983929	0.000456	20.771179
149.056495	-3.011000	3.858100	-11.616000	21.949924	0.000457	20.755157
150.060837	-3.015700	3.859300	-11.638000	21.994175	0.000456	20.761047
151.056129	-3.011400	3.858800	-11.619000	21.968871	0.000457	20.765589
152.059857	-3.003800	3.859300	-11.591000	21.983381	0.000457	20.773002
153.056587	-2.998500	3.857900	-11.567000	21.981063	0.000458	20.771155
154.056851	-3.010000	3.855800	-11.604000	21.975478	0.000458	20.759401
155.055585	-3.002400	3.856400	-11.577000	21.988591	0.000458	20.746448
156.057437	-2.996100	3.858300	-11.558000	22.002478	0.000455	20.750866
157.058333	-2.992500	3.857800	-11.543000	22.008012	0.000458	20.760674
158.057106	-3.000100	3.857000	-11.571000	21.998539	0.000460	20.766838
159.058117	-2.996900	3.856400	-11.556000	22.002254	0.000459	20.766290
160.056593	-2.996800	3.855900	-11.554000	22.017461	0.000458	20.754486
161.058373	-2.996300	3.856700	-11.554000	22.003725	0.000459	20.752115
162.059805	-3.035100	3.854600	-11.698000	22.050866	0.000461	20.771331
163.059557	-2.995400	3.857100	-11.553000	22.060638	0.000458	20.768786
164.059026	-3.020000	3.854700	-11.640000	22.063181	0.000459	20.734821
165.060903	-2.977300	3.856900	-11.482000	22.061885	0.000460	20.763870
166.062831	-2.980600	3.855500	-11.491000	22.078287	0.000462	20.770334
167.061839	-2.970000	3.855400	-11.449000	22.101395	0.000461	20.741310
168.063535	-2.981100	3.856600	-11.496000	22.086787	0.000461	20.765567
169.061198	-2.998500	3.854200	-11.556000	22.105833	0.000463	20.758555
170.061310	-3.010400	3.854400	-11.603000	22.111516	0.000463	20.777522
171.061131	-3.015400	3.853800	-11.620000	22.120016	0.000462	20.776074
172.061308	-3.002800	3.854200	-11.572000	22.109996	0.000465	20.773155
173.063154	-3.005200	3.854200	-11.581000	22.127196	0.000464	20.760028
174.064403	-3.010200	3.854300	-11.601000	22.125027	0.000466	20.782988
175.062044	-3.009200	3.855100	-11.600000	22.112888	0.000465	20.765619
176.061959	-2.992500	3.854700	-11.534000	22.126647	0.000466	20.765644
177.064214	-3.003900	3.854000	-11.576000	22.145193	0.000465	20.764771
178.061702	-3.007100	3.854200	-11.589000	22.156559	0.000465	20.773306
179.065426	-2.988500	3.853300	-11.515000	22.194945	0.000466	20.770012
180.063212	-3.008900	3.853900	-11.595000	22.162742	0.000466	20.768590
181.063464	-3.008600	3.852700	-11.590000	22.162193	0.000465	20.768989
182.063092	-2.999000	3.853500	-11.555000	22.169298	0.000468	20.768516
183.063632	-3.012300	3.852800	-11.605000	22.205016	0.000469	20.775354
184.062697	-3.003600	3.852200	-11.568000	22.185400	0.000469	20.758084
185.063917	-2.993200	3.852600	-11.531000	22.200106	0.000467	20.768541
186.063912	-2.999700	3.851000	-11.551000	22.220769	0.000468	20.756038
187.063722	-2.977800	3.851900	-11.469000	22.216956	0.000471	20.779722
188.066116	-3.022000	3.851000	-11.637000	22.234653	0.000470	20.757611
189.063764	-3.008500	3.851300	-11.585000	22.243027	0.000469	20.784015
190.067492	-2.995000	3.851400	-11.534000	22.241856	0.000470	20.779997
191.064784	-2.989600	3.851600	-11.514000	22.246318	0.000469	20.778300
192.065758	-3.001400	3.851000	-11.558000	22.245719	0.000470	20.783391
193.068245	-3.010800	3.850800	-11.593000	22.252549	0.000470	20.763676
194.065838	-3.013200	3.850500	-11.601000	22.282856	0.000470	20.766048
195.071425	-3.025200	3.849900	-11.645000	22.277772	0.000472	20.780871
196.064620	-2.993600	3.850600	-11.526000	22.311617	0.000474	20.764975
197.065111	-3.010800	3.850200	-11.591000	22.307855	0.000472	20.773535
198.066998	-2.979800	3.851000	-11.475000	22.328166	0.000471	20.790555
199.067046	-2.984600	3.849300	-11.488000	22.345264	0.000472	20.787761
200.070245	-3.009100	3.849500	-11.583000	22.318372	0.000474	20.782170
201.070397	-3.008200	3.847000	-11.571000	22.340978	0.000475	20.788685
202.068081	-3.003200	3.847900	-11.554000	22.341675	0.000473	20.774210
203.067750	-3.005500	3.848300	-11.565000	22.330710	0.000473	20.793577
204.068231	-2.992200	3.849100	-11.517000	22.355308	0.000474	20.776956
205.069468	-2.991400	3.848500	-11.511000	22.354237	0.000475	20.799591
206.071646	-3.005500	3.848800	-11.566000	22.350450	0.000472	20.791531
207.069336	-3.024400	3.845800	-11.630000	22.358151	0.000475	20.772216
208.071393	-2.997400	3.847700	-11.532000	22.382922	0.000476	20.791806
209.072635	-3.005000	3.848000	-11.563000	22.383471	0.000475	20.780028
210.071815	-3.012200	3.846700	-11.585000	22.390972	0.000477	20.774737
211.077037	-2.988600	3.848200	-11.500000	22.374973	0.000477	20.791906
212.072309	-3.007900	3.846700	-11.570000	22.405377	0.000477	20.787740
213.072668	-3.003300	3.846700	-11.552000	22.409962	0.000478	20.797073
214.072647	-2.997100	3.847400	-11.530000	22.419083	0.000478	20.810000
215.073009	-2.987900	3.847500	-11.494000	22.449859	0.000481	20.808578
216.071856	-3.007000	3.846000	-11.564000	22.450235	0.000477	20.770072
217.077662	-3.001500	3.845300	-11.541000	22.447244	0.000478	20.764233
218.072250	-3.002000	3.845600	-11.543000	22.443332	0.000479	20.775488
219.072825	-3.003500	3.846000	-11.550000	22.421502	0.000480	20.801517
220.074769	-2.991600	3.845100	-11.502000	22.459405	0.000482	20.776886
221.073606	-3.002100	3.844600	-11.541000	22.446198	0.000479	20.780729
222.077509	-3.012800	3.844100	-11.580000	22.466359	0.000482	20.778160
223.077390	-2.998100	3.844400	-11.524000	22.470396	0.000482	20.785996
224.074891	-2.987300	3.846200	-11.489000	22.514752	0.000482	20.781106
225.075895	-2.986300	3.845800	-11.483000	22.514452	0.000483	20.809255
226.075927	-2.985500	3.845100	-11.479000	22.505682	0.000479	20.784350
227.083604	-2.977400	3.844400	-11.445000	22.491578	0.000482	20.803416
228.077109	-2.976200	3.844800	-11.442000	22.517369	0.000480	20.797003
229.077932	-2.990100	3.844400	-11.494000	22.510641	0.000484	20.774617
230.077213	-3.003100	3.842400	-11.538000	22.532943	0.000484	20.779884
231.077273	-3.002200	3.843400	-11.538000	22.507029	0.000483	20.804665
232.078234	-3.006200	3.842900	-11.551000	22.522727	0.000483	20.815171
233.079392	-3.013000	3.842500	-11.576000	22.543633	0.000482	20.815720
234.078572	-2.979500	3.843900	-11.452000	22.533493	0.000485	20.798453
235.078146	-3.030300	3.841900	-11.641000	22.554573	0.000484	20.806762
236.080664	-3.003200	3.842300	-11.538000	22.554075	0.000484	20.816221
237.077830	-3.021100	3.841800	-11.606000	22.555122	0.000484	20.809683
238.081618	-2.995500	3.842300	-11.507000	22.578445	0.000483	20.796059
239.079142	-3.009700	3.841700	-11.561000	22.571319	0.000485	20.794611
240.078554	-3.002500	3.841100	-11.532000	22.569450	0.000485	20.828301
241.080302	-2.996600	3.840400	-11.507000	22.599251	0.000485	20.806940
242.080985	-2.997300	3.840100	-11.509000	22.607075	0.000486	20.798181
243.080178	-2.989400	3.841200	-11.482000	22.596138	0.000487	20.806667
244.082924	-3.001900	3.839900	-11.526000	22.590382	0.000487	20.806118
245.079823	-2.988000	3.840600	-11.474000	22.626785	0.000486	20.798482
246.082414	-2.994500	3.838800	-11.494000	22.644376	0.000489	20.823213
247.087161	-3.005400	3.839300	-11.538000	22.672281	0.000488	20.807542
248.082241	-2.983600	3.840800	-11.458000	22.680728	0.000488	20.813157
249.087322	-3.015700	3.839500	-11.578000	22.663512	0.000491	20.822465
250.084547	-3.019200	3.839400	-11.590000	22.685661	0.000488	20.821418
251.084300	-2.992100	3.841100	-11.492000	22.684840	0.000492	20.808268
252.087847	-2.991800	3.839200	-11.485000	22.665508	0.000490	20.799335
253.084981	-3.008400	3.839400	-11.549000	22.638350	0.000490	20.820970
254.088856	-2.975600	3.837500	-11.418000	22.667998	0.000492	20.813683
255.091476	-2.993000	3.837800	-11.486000	22.659305	0.000489	20.812088
256.086736	-2.983100	3.838500	-11.450000	22.668922	0.000488	20.819350
257.086756	-3.010400	3.836900	-11.550000	22.693214	0.000491	20.814284
258.089176	-3.011700	3.837200	-11.555000	22.724855	0.000492	20.808520
259.089028	-3.009600	3.836900	-11.547000	22.726524	0.000491	20.826313
260.089522	-2.998200	3.836900	-11.503000	22.759010	0.000491	20.805750
261.088213	-3.000100	3.836600	-11.509000	22.747177	0.000493	20.821871
262.091395	-2.998200	3.836300	-11.502000	22.752234	0.000496	20.809868
263.086740	-3.002700	3.836700	-11.520000	22.770147	0.000493	20.817854
264.087495	-2.984400	3.837100	-11.451000	22.759784	0.000495	20.824542
265.090259	-3.017300	3.835200	-11.570000	22.800815	0.000494	20.819652
266.086051	-3.003300	3.835800	-11.519000	22.800391	0.000494	20.810693
267.087516	-3.004100	3.836200	-11.524000	22.783401	0.000495	20.834924
268.092180	-3.003600	3.835500	-11.520000	22.808812	0.000494	20.817232
269.087853	-2.996100	3.836100	-11.492000	22.794961	0.000496	20.824693
270.088439	-2.996900	3.835700	-11.495000	22.810381	0.000495	20.825441
271.088346	-3.010700	3.834900	-11.545000	22.812050	0.000494	20.841812
272.088633	-2.982200	3.834700	-11.435000	22.836239	0.000499	20.822422
