LabVIEW Measurement	
Writer_Version	2
Reader_Version	2
Separator	Tab
Decimal_Separator	.
Multi_Headings	No
X_Columns	One
Time_Pref	Absolute
Operator	admin
Description	Clolumns are: time, Current, Voltage, Power, Battery Temp, and Chamber Temp
Date	2024/08/16
Time	13:07:17.8513970375061035156
***End_of_Header***	
	
Channels	6						
Samples	1	1	1	1	1	1	
Date	2024/09/03	2024/09/03	2024/09/03	2024/09/03	2024/09/03	2024/09/03	
Time	00:04:59.2665200233459472656	00:04:59.277042388916015625	00:04:59.2830519676208496094	00:04:59.2481904029846191406	00:04:59.2481904029846191406	00:04:59.2481904029846191406	
X_Dimension	Time	Time	Time	Time	Time	Time	
X0	0.0000000000000000E+0	0.0000000000000000E+0	0.0000000000000000E+0	0.0000000000000000E+0	0.0000000000000000E+0	0.0000000000000000E+0	
Delta_X	1.000000	1.000000	1.000000	1.000000	1.000000	1.000000	
***End_of_Header***							
X_Value	Untitled	Untitled 1	Untitled 2	Untitled 3	Untitled 4	Untitled 5	Comment
0.000000	0.029121	4.084500	0.118980	20.871620	0.000465	20.836535
0.998341	-2.980800	3.922500	-11.691000	20.869471	0.000466	20.814471
2.001535	-2.978100	3.918100	-11.667000	20.886995	0.000465	20.822039
2.998250	-3.027200	3.912400	-11.843000	20.893480	0.000466	20.830422
3.999169	-3.005700	3.907700	-11.744000	20.879662	0.000463	20.820869
4.997417	-3.000700	3.905300	-11.718000	20.894815	0.000465	20.821325
5.997903	-2.985000	3.904900	-11.655000	20.895238	0.000461	20.806101
6.999650	-3.013900	3.900100	-11.753000	20.887728	0.000462	20.818505
7.998816	-2.998500	3.898400	-11.689000	20.903127	0.000462	20.819681
8.999686	-2.987100	3.897700	-11.641000	20.904853	0.000459	20.812398
10.000761	-3.002800	3.895800	-11.698000	20.896970	0.000461	20.819213
11.001112	-3.013600	3.893700	-11.734000	20.905309	0.000461	20.814750
12.001632	-3.014300	3.893100	-11.734000	20.926669	0.000459	20.829948
13.001675	-3.008700	3.891300	-11.707000	20.937099	0.000459	20.826629
14.001557	-2.993700	3.890900	-11.647000	20.959887	0.000458	20.823816
15.002421	-2.960700	3.890800	-11.519000	20.923407	0.000455	20.820522
16.001774	-3.000200	3.888300	-11.664000	20.953882	0.000459	20.821603
17.002202	-3.001800	3.888100	-11.670000	20.963939	0.000457	20.814118
18.002833	-2.982600	3.887100	-11.593000	20.959520	0.000457	20.805432
19.001668	-3.011700	3.884500	-11.699000	20.958876	0.000456	20.819012
20.002107	-2.998400	3.884300	-11.646000	20.977612	0.000457	20.818310
21.007989	-3.001900	3.883200	-11.655000	20.991891	0.000453	20.787547
22.002123	-3.017700	3.883400	-11.718000	20.986480	0.000456	20.804895
23.001666	-3.001800	3.883500	-11.656000	21.003800	0.000454	20.806096
24.000364	-3.013200	3.882700	-11.698000	21.019122	0.000456	20.797713
25.001912	-3.004500	3.880500	-11.658000	21.018926	0.000453	20.818854
26.003139	-2.999600	3.881100	-11.640000	21.039759	0.000455	20.800337
27.001414	-2.996200	3.881200	-11.628000	21.039140	0.000454	20.807304
28.001783	-2.992100	3.879500	-11.605000	21.045024	0.000454	20.794698
29.005047	-2.982800	3.879200	-11.570000	21.041314	0.000454	20.821807
30.009231	-3.007800	3.878400	-11.664000	21.063019	0.000453	20.814593
31.002263	-3.009600	3.877300	-11.668000	21.061875	0.000450	20.812501
32.002232	-3.013200	3.876500	-11.680000	21.084737	0.000454	20.790323
33.003153	-3.006200	3.876800	-11.653000	21.069365	0.000453	20.810035
34.003239	-3.009400	3.877200	-11.667000	21.102409	0.000452	20.799939
35.003521	-2.982800	3.876500	-11.561000	21.102959	0.000452	20.817559
36.003139	-2.990400	3.877000	-11.592000	21.072899	0.000449	20.815940
37.005237	-2.993200	3.876400	-11.602000	21.118337	0.000450	20.813975
38.012825	-3.010200	3.875100	-11.664000	21.131091	0.000449	20.810611
39.005423	-3.004700	3.874700	-11.641000	21.118893	0.000449	20.823066
40.005115	-2.996800	3.875100	-11.612000	21.136236	0.000449	20.790154
41.005318	-3.017200	3.873000	-11.684000	21.160012	0.000452	20.794971
42.005024	-3.008700	3.873900	-11.655000	21.154881	0.000450	20.823502
43.009676	-2.996200	3.873400	-11.605000	21.158427	0.000450	20.790540
44.006147	-3.004000	3.872200	-11.630000	21.164664	0.000449	20.825703
45.007329	-3.012300	3.872500	-11.665000	21.183979	0.000450	20.799979
46.007706	-3.012700	3.872600	-11.665000	21.216640	0.000449	20.810840
47.008084	-2.993400	3.872700	-11.591000	21.205163	0.000448	20.815954
48.010373	-3.001700	3.873200	-11.625000	21.189148	0.000450	20.819849
49.008736	-2.995700	3.872800	-11.601000	21.200878	0.000449	20.796021
50.009520	-2.995200	3.872300	-11.598000	21.230999	0.000449	20.820937
51.012181	-3.025000	3.870900	-11.709000	21.225658	0.000451	20.815120
52.009844	-2.996900	3.871000	-11.600000	21.249143	0.000447	20.823915
53.009619	-3.015300	3.870100	-11.669000	21.255228	0.000450	20.846123
54.008802	-3.003400	3.870800	-11.625000	21.266888	0.000450	20.813692
55.009421	-3.009500	3.870100	-11.646000	21.273195	0.000449	20.797242
56.009449	-2.996400	3.869400	-11.593000	21.288387	0.000448	20.814337
57.009264	-3.001600	3.870000	-11.616000	21.290908	0.000450	20.819705
58.011415	-3.005400	3.869800	-11.629000	21.290694	0.000450	20.819490
59.011253	-3.005500	3.870200	-11.631000	21.318404	0.000448	20.798849
60.011459	-2.987700	3.869600	-11.560000	21.308931	0.000450	20.818769
61.012162	-3.007600	3.868100	-11.633000	21.302050	0.000449	20.820894
62.010438	-3.002800	3.870200	-11.621000	21.324199	0.000447	20.838310
63.012504	-3.016700	3.868200	-11.668000	21.332281	0.000451	20.830275
64.014284	-3.004400	3.867800	-11.620000	21.331517	0.000450	20.807700
65.011420	-2.992800	3.869200	-11.579000	21.337374	0.000448	20.817354
66.013158	-2.974300	3.868900	-11.506000	21.366771	0.000448	20.836807
67.014391	-2.983900	3.867600	-11.540000	21.372281	0.000449	20.830940
68.012971	-3.004900	3.867600	-11.621000	21.395579	0.000447	20.827697
69.013638	-3.014100	3.868000	-11.657000	21.410769	0.000449	20.820136
70.014629	-3.004000	3.867200	-11.616000	21.416962	0.000451	20.805469
71.012431	-3.012800	3.866800	-11.648000	21.412027	0.000450	20.836093
72.013133	-2.989900	3.867300	-11.562000	21.420879	0.000450	20.818398
73.012816	-3.004300	3.865700	-11.611000	21.425846	0.000449	20.840436
74.013838	-3.012900	3.865600	-11.645000	21.452712	0.000449	20.848351
75.013150	-3.008100	3.865800	-11.627000	21.438022	0.000451	20.825592
76.017197	-3.000500	3.864800	-11.596000	21.444536	0.000450	20.845386
77.014832	-3.022600	3.865200	-11.682000	21.459252	0.000447	20.827394
78.015352	-2.981400	3.866700	-11.527000	21.459144	0.000448	20.843881
79.014563	-2.994100	3.866100	-11.574000	21.489005	0.000448	20.820181
80.014013	-3.004200	3.865300	-11.610000	21.486390	0.000450	20.820409
81.021080	-3.003100	3.864300	-11.604000	21.480779	0.000450	20.840398
82.014110	-3.015700	3.864400	-11.653000	21.490636	0.000448	20.819916
83.014418	-3.000800	3.864600	-11.596000	21.470954	0.000450	20.844318
84.015075	-3.015700	3.865000	-11.654000	21.516951	0.000452	20.830126
85.015535	-2.986700	3.865200	-11.544000	21.537851	0.000452	20.834444
86.017282	-3.008300	3.864100	-11.623000	21.539425	0.000448	20.844078
87.016573	-2.977700	3.863900	-11.504000	21.537807	0.000449	20.832029
88.016134	-2.992000	3.863500	-11.559000	21.537630	0.000451	20.835171
89.015945	-2.999600	3.864200	-11.590000	21.552023	0.000450	20.849572
90.017192	-3.022800	3.862800	-11.676000	21.578811	0.000451	20.828963
91.017039	-3.008800	3.863600	-11.624000	21.569012	0.000453	20.850925
92.018416	-3.009200	3.863200	-11.624000	21.577339	0.000448	20.849774
93.018174	-3.005900	3.863900	-11.613000	21.595148	0.000450	20.836777
94.022241	-2.996800	3.863500	-11.577000	21.572556	0.000451	20.833610
95.021272	-3.010200	3.861400	-11.621000	21.588269	0.000454	20.844117
96.020232	-3.002600	3.861600	-11.594000	21.624127	0.000451	20.849655
97.020379	-3.019900	3.860900	-11.658000	21.605308	0.000451	20.845521
98.020750	-3.019800	3.861400	-11.659000	21.621873	0.000453	20.836019
99.019966	-2.987700	3.860700	-11.534000	21.626687	0.000451	20.847948
100.020412	-2.989800	3.861400	-11.544000	21.648413	0.000450	20.847879
101.020926	-3.005400	3.860600	-11.601000	21.655317	0.000453	20.834401
102.020203	-2.986700	3.860900	-11.530000	21.656145	0.000453	20.843764
103.021257	-2.994000	3.861800	-11.561000	21.669519	0.000450	20.861415
104.025743	-2.990700	3.862600	-11.550000	21.668268	0.000451	20.842146
105.023833	-3.000800	3.860100	-11.583000	21.691169	0.000451	20.846097
106.026757	-2.989500	3.860400	-11.539000	21.703310	0.000454	20.843075
107.028094	-2.993400	3.859800	-11.552000	21.716109	0.000453	20.872004
108.022625	-2.982000	3.861700	-11.515000	21.701794	0.000452	20.841558
109.026733	-2.994300	3.860700	-11.559000	21.724820	0.000453	20.856541
110.028239	-3.008800	3.860400	-11.615000	21.729059	0.000454	20.852723
111.031938	-3.026200	3.857900	-11.673000	21.752248	0.000456	20.856017
112.025875	-3.002300	3.860200	-11.587000	21.738781	0.000455	20.866245
113.032059	-2.979600	3.860100	-11.501000	21.748060	0.000453	20.841869
114.027481	-3.007800	3.859200	-11.606000	21.768363	0.000454	20.845593
115.029527	-2.997300	3.858600	-11.565000	21.788437	0.000456	20.855252
116.038659	-3.018400	3.858900	-11.646000	21.797268	0.000454	20.863616
117.030098	-3.004200	3.858900	-11.591000	21.792802	0.000454	20.880482
118.031683	-3.008000	3.859600	-11.609000	21.787768	0.000455	20.871651
119.032574	-2.997100	3.858100	-11.562000	21.816572	0.000453	20.872505
120.028498	-2.984800	3.858600	-11.516000	21.806522	0.000454	20.861973
121.031369	-3.007800	3.858300	-11.604000	21.829091	0.000456	20.871759
122.032477	-2.986000	3.858700	-11.521000	21.822181	0.000456	20.877170
123.028253	-2.990500	3.858400	-11.537000	21.842109	0.000458	20.857763
124.030552	-2.991900	3.857300	-11.540000	21.844459	0.000458	20.857270
125.030519	-3.014500	3.856800	-11.626000	21.859713	0.000458	20.873485
126.029335	-3.002800	3.857900	-11.584000	21.867621	0.000459	20.860064
127.035210	-3.018100	3.857500	-11.642000	21.865600	0.000457	20.875110
128.033110	-2.976900	3.857800	-11.484000	21.886392	0.000457	20.875059
129.030815	-3.021400	3.856400	-11.651000	21.881257	0.000460	20.857118
130.032765	-3.001000	3.856800	-11.573000	21.914890	0.000458	20.862808
131.037906	-2.995200	3.857200	-11.552000	21.886746	0.000459	20.873517
132.029902	-3.023800	3.856800	-11.662000	21.904128	0.000460	20.874320
133.031631	-2.990300	3.857000	-11.533000	21.923322	0.000458	20.870773
134.033395	-3.010000	3.856200	-11.605000	21.932651	0.000459	20.857353
135.029498	-2.983100	3.857100	-11.505000	21.940021	0.000459	20.887487
136.033153	-2.970000	3.857500	-11.456000	21.946861	0.000460	20.865413
137.036550	-3.006500	3.855200	-11.590000	21.978742	0.000462	20.875041
138.030105	-2.991500	3.856100	-11.535000	21.979690	0.000459	20.875041
139.035298	-2.981800	3.855700	-11.496000	21.990780	0.000460	20.870495
140.035518	-3.009900	3.855200	-11.602000	21.991538	0.000461	20.883581
141.029786	-2.999200	3.855000	-11.561000	21.952350	0.000461	20.882286
142.033411	-2.970100	3.855600	-11.450000	21.972219	0.000463	20.876097
143.039701	-2.991900	3.854900	-11.533000	21.991090	0.000463	20.906838
144.030094	-2.986700	3.854500	-11.511000	22.017987	0.000462	20.859325
145.032320	-2.976700	3.854600	-11.473000	22.024025	0.000462	20.866791
146.041438	-2.980900	3.854600	-11.489000	22.006923	0.000462	20.875749
147.031279	-2.986700	3.855100	-11.513000	22.018511	0.000463	20.875022
148.035129	-3.007800	3.854600	-11.593000	22.045194	0.000463	20.865698
149.035729	-3.011400	3.854600	-11.607000	22.070441	0.000462	20.887653
150.030450	-3.006400	3.854900	-11.587000	22.031306	0.000462	20.906320
151.034763	-2.989900	3.855000	-11.525000	22.048882	0.000463	20.893570
152.035829	-3.019400	3.851600	-11.628000	22.057060	0.000463	20.885636
153.033233	-2.990800	3.852500	-11.522000	22.081790	0.000463	20.890479
154.033718	-3.010200	3.852300	-11.595000	22.094237	0.000464	20.875914
155.035460	-3.008600	3.852100	-11.589000	22.080502	0.000465	20.883500
156.032729	-3.003100	3.853200	-11.571000	22.109475	0.000466	20.874575
157.036386	-2.974000	3.853900	-11.460000	22.107903	0.000467	20.898603
158.037255	-3.011300	3.851700	-11.597000	22.107031	0.000466	20.897256
159.035082	-3.002200	3.851200	-11.562000	22.127169	0.000467	20.902244
160.037848	-3.016900	3.850900	-11.616000	22.108484	0.000467	20.906297
161.040097	-3.005500	3.852400	-11.577000	22.116308	0.000465	20.889475
162.034752	-3.012100	3.850700	-11.597000	22.113694	0.000467	20.906297
163.037460	-3.015400	3.851900	-11.613000	22.150111	0.000467	20.920943
164.037633	-3.023300	3.850600	-11.640000	22.167160	0.000468	20.898186
165.037221	-2.996200	3.850500	-11.535000	22.166712	0.000468	20.892996
166.038674	-2.995800	3.851700	-11.538000	22.202338	0.000470	20.902586
167.039553	-3.008500	3.850200	-11.582000	22.202881	0.000470	20.897440
168.036291	-3.019100	3.849300	-11.621000	22.212435	0.000470	20.895626
169.041095	-2.978700	3.850000	-11.467000	22.209070	0.000469	20.903636
170.038569	-2.990800	3.849000	-11.510000	22.230582	0.000469	20.897201
171.036536	-2.969500	3.850300	-11.433000	22.221787	0.000471	20.899300
172.038703	-3.002300	3.849700	-11.557000	22.221483	0.000469	20.899470
173.039711	-3.012200	3.848800	-11.593000	22.221414	0.000471	20.906038
174.037059	-2.992200	3.849700	-11.519000	22.238564	0.000473	20.909932
175.040703	-2.981500	3.849300	-11.475000	22.237377	0.000472	20.917279
176.037886	-3.014400	3.849300	-11.602000	22.242984	0.000470	20.901083
177.036568	-3.008500	3.847800	-11.575000	22.257172	0.000469	20.936622
178.039456	-3.015900	3.847600	-11.603000	22.287295	0.000473	20.912259
179.044938	-2.989600	3.847600	-11.502000	22.250637	0.000469	20.926287
180.038079	-3.013100	3.847300	-11.591000	22.281746	0.000473	20.919978
181.039183	-2.972300	3.849500	-11.441000	22.290421	0.000474	20.907803
182.040978	-3.002500	3.847100	-11.550000	22.314572	0.000474	20.913967
183.036920	-3.007800	3.846900	-11.570000	22.327616	0.000473	20.920390
184.037235	-3.014800	3.846200	-11.595000	22.303188	0.000474	20.924378
185.043675	-3.019300	3.847000	-11.614000	22.318695	0.000474	20.909561
186.038921	-2.991000	3.847200	-11.506000	22.325350	0.000473	20.911009
187.037629	-3.002500	3.846500	-11.548000	22.366394	0.000474	20.936459
188.038994	-3.006100	3.846400	-11.562000	22.336172	0.000475	20.920896
189.041476	-2.992800	3.847500	-11.513000	22.337213	0.000474	20.921465
190.036737	-3.014200	3.845300	-11.589000	22.337466	0.000476	20.923614
191.039168	-2.998900	3.846700	-11.535000	22.371609	0.000475	20.927932
192.039280	-2.992000	3.846200	-11.507000	22.374652	0.000478	20.927660
193.039503	-2.978400	3.846300	-11.455000	22.359305	0.000476	20.927464
194.038430	-2.978600	3.846000	-11.456000	22.377323	0.000478	20.931282
195.038855	-2.980300	3.847000	-11.464000	22.376604	0.000477	20.922976
196.040485	-3.011200	3.845400	-11.578000	22.381472	0.000477	20.932118
197.039635	-2.996200	3.844900	-11.519000	22.387425	0.000480	20.912951
198.040850	-3.004500	3.844300	-11.550000	22.410159	0.000479	20.924810
199.041300	-2.988100	3.846300	-11.492000	22.427950	0.000476	20.930297
200.041802	-2.994600	3.845600	-11.515000	22.449780	0.000479	20.941252
201.041277	-2.997800	3.844100	-11.523000	22.465216	0.000478	20.941537
202.042223	-3.018000	3.844000	-11.601000	22.465234	0.000481	20.945348
203.043903	-2.988600	3.844400	-11.488000	22.485303	0.000481	20.912820
204.042808	-3.000100	3.843900	-11.530000	22.486799	0.000481	20.938023
205.042058	-2.987000	3.843900	-11.481000	22.483384	0.000480	20.934603
206.044869	-2.994600	3.844700	-11.512000	22.491118	0.000483	20.957992
207.046646	-2.990200	3.844300	-11.494000	22.484067	0.000481	20.955198
208.043922	-3.011800	3.842500	-11.572000	22.509084	0.000484	20.936159
209.044723	-2.987500	3.843100	-11.481000	22.531361	0.000483	20.943295
210.044077	-3.002900	3.841900	-11.535000	22.530420	0.000482	20.957999
211.045466	-2.990600	3.842500	-11.491000	22.563308	0.000483	20.936886
212.046908	-3.006900	3.842400	-11.552000	22.550684	0.000482	20.943208
213.051978	-3.005200	3.841400	-11.543000	22.543948	0.000483	20.952107
214.046649	-2.996700	3.841900	-11.511000	22.560626	0.000482	20.948897
215.047407	-2.994100	3.842000	-11.502000	22.583603	0.000485	20.952943
216.050684	-2.982600	3.841000	-11.455000	22.587939	0.000484	20.943537
217.049918	-3.009700	3.841300	-11.559000	22.594997	0.000485	20.923107
218.050194	-2.999700	3.839700	-11.517000	22.601093	0.000486	20.945332
219.052175	-2.978000	3.841100	-11.437000	22.603934	0.000487	20.941065
220.051697	-2.994400	3.840200	-11.498000	22.608385	0.000486	20.945049
221.052043	-2.993400	3.840900	-11.496000	22.603196	0.000487	20.970668
222.054946	-2.985900	3.841000	-11.468000	22.580927	0.000488	20.951686
223.050833	-2.998800	3.838800	-11.511000	22.589947	0.000487	20.953133
224.050417	-2.977300	3.840400	-11.433000	22.587764	0.000489	20.979392
225.054775	-3.006800	3.838600	-11.541000	22.614268	0.000487	20.949992
226.053506	-3.001100	3.839200	-11.521000	22.638096	0.000491	20.954417
227.051576	-2.992300	3.837800	-11.483000	22.641713	0.000491	20.956618
228.054009	-2.994900	3.839200	-11.497000	22.651080	0.000491	20.943716
229.052537	-2.984400	3.839800	-11.459000	22.636759	0.000489	20.965404
230.052784	-3.001900	3.838000	-11.520000	22.677155	0.000488	20.985000
231.057933	-3.022500	3.837100	-11.597000	22.687273	0.000493	20.964318
232.051550	-2.984700	3.838500	-11.456000	22.693773	0.000490	20.966562
233.056129	-3.000500	3.837100	-11.513000	22.691584	0.000489	20.961050
234.056424	-3.001300	3.837300	-11.516000	22.703891	0.000490	20.954887
235.054645	-3.000100	3.837300	-11.511000	22.701304	0.000491	20.983111
236.052712	-2.998600	3.836200	-11.502000	22.702976	0.000492	20.990475
237.058437	-3.009700	3.837200	-11.549000	22.694033	0.000491	20.981518
238.054693	-3.016800	3.837600	-11.576000	22.730456	0.000494	20.973434
239.055634	-3.003800	3.836100	-11.522000	22.754560	0.000492	20.969604
240.064609	-3.006300	3.837800	-11.536000	22.752049	0.000492	20.956185
241.055822	-3.009100	3.835500	-11.541000	22.772471	0.000492	20.973795
242.056174	-2.987100	3.836800	-11.460000	22.789909	0.000492	20.978934
243.059737	-3.016400	3.835200	-11.567000	22.779231	0.000494	20.968713
244.057186	-2.994100	3.836900	-11.486000	22.774675	0.000494	20.981691
245.057673	-2.996900	3.834700	-11.490000	22.770187	0.000495	20.960129
246.059786	-2.990700	3.836300	-11.472000	22.766104	0.000495	20.992070
247.057578	-3.008000	3.833700	-11.530000	22.780715	0.000496	20.980156
248.058637	-2.993100	3.835500	-11.479000	22.782678	0.000497	20.976906
249.061944	-2.985600	3.834600	-11.447000	22.778916	0.000496	20.977406
250.058237	-3.008100	3.834600	-11.534000	22.815369	0.000494	20.978361
251.058559	-2.990700	3.834600	-11.467000	22.789911	0.000496	20.973721
252.061263	-2.984700	3.833000	-11.439000	22.792877	0.000497	20.979063
253.058865	-2.976100	3.834100	-11.410000	22.802275	0.000498	20.972356
254.058975	-2.987200	3.834200	-11.452000	22.822855	0.000498	20.984910
255.062658	-3.028300	3.831800	-11.603000	22.840266	0.000497	20.995239
256.059851	-2.982800	3.833400	-11.434000	22.826345	0.000499	20.984139
257.060939	-2.989500	3.833800	-11.460000	22.841661	0.000499	20.970561
258.067919	-2.976400	3.832800	-11.407000	22.856460	0.000498	20.971636
259.062047	-2.971600	3.834200	-11.393000	22.829513	0.000500	20.961238
260.062788	-2.999400	3.833200	-11.496000	22.859281	0.000500	20.976358
261.065561	-3.009300	3.831900	-11.530000	22.876301	0.000500	20.966384
262.062359	-3.014400	3.830900	-11.547000	22.854851	0.000499	20.957699
263.062772	-3.003900	3.831800	-11.510000	22.857098	0.000502	20.965165
264.065765	-3.021600	3.830600	-11.574000	22.869259	0.000501	20.968338
265.062127	-3.016200	3.831000	-11.554000	22.875658	0.000502	20.980436
266.065837	-3.019200	3.831200	-11.566000	22.907072	0.000502	20.967813
267.064869	-2.997300	3.830500	-11.480000	22.900944	0.000497	20.958357
268.060401	-2.974500	3.831000	-11.394000	22.878082	0.000504	20.956316
269.063849	-2.997300	3.830500	-11.480000	22.889321	0.000500	20.960937
270.067553	-3.003700	3.831300	-11.507000	22.883584	0.000504	20.959457
271.065951	-2.998100	3.828700	-11.478000	22.889517	0.000503	20.965873
272.066771	-3.003900	3.829300	-11.502000	22.863745	0.000505	20.955704
