LabVIEW Measurement	
Writer_Version	2
Reader_Version	2
Separator	Tab
Decimal_Separator	.
Multi_Headings	No
X_Columns	One
Time_Pref	Absolute
Operator	admin
Description	Clolumns are: time, Current, Voltage, Power, Battery Temp, and Chamber Temp
Date	2024/08/16
Time	13:07:17.8513970375061035156
***End_of_Header***	
	
Channels	6						
Samples	1	1	1	1	1	1	
Date	2024/09/15	2024/09/15	2024/09/15	2024/09/15	2024/09/15	2024/09/15	
Time	06:27:10.3894705772399902344	06:27:10.3944401741027832031	06:27:10.39966583251953125	06:27:10.3734645843505859375	06:27:10.3734645843505859375	06:27:10.3734645843505859375	
X_Dimension	Time	Time	Time	Time	Time	Time	
X0	0.0000000000000000E+0	0.0000000000000000E+0	0.0000000000000000E+0	0.0000000000000000E+0	0.0000000000000000E+0	0.0000000000000000E+0	
Delta_X	1.000000	1.000000	1.000000	1.000000	1.000000	1.000000	
***End_of_Header***							
X_Value	Untitled	Untitled 1	Untitled 2	Untitled 3	Untitled 4	Untitled 5	Comment
0.000000	0.016407	4.085500	0.067028	20.809731	0.000466	20.804516
1.002838	-2.983800	3.915600	-11.682000	20.810004	0.000466	20.805263
2.002296	-2.997000	3.908600	-11.713000	20.805988	0.000466	20.800298
3.002590	-2.995700	3.903700	-11.693000	20.815170	0.000462	20.819437
4.004411	-2.992100	3.899700	-11.668000	20.801094	0.000462	20.806784
5.008125	-2.997200	3.898800	-11.684000	20.816320	0.000462	20.816320
6.009834	-3.016800	3.895300	-11.750000	20.817891	0.000463	20.817891
7.000882	-3.008700	3.892900	-11.712000	20.840176	0.000461	20.800822
8.001318	-3.021700	3.891600	-11.758000	20.828672	0.000462	20.813500
9.006950	-3.038900	3.887800	-11.814000	20.839701	0.000462	20.805563
10.002254	-3.021600	3.887300	-11.745000	20.845267	0.000460	20.804491
11.003574	-3.022100	3.886300	-11.744000	20.830498	0.000461	20.805842
12.003462	-2.970000	3.886200	-11.541000	20.865261	0.000459	20.816900
13.001941	-2.979700	3.885200	-11.575000	20.873892	0.000458	20.805142
14.002563	-2.981800	3.884400	-11.582000	20.882305	0.000458	20.796961
15.006474	-3.016700	3.881400	-11.708000	20.889466	0.000458	20.826881
16.003057	-3.007300	3.880700	-11.670000	20.900169	0.000457	20.820042
17.004903	-2.998000	3.879900	-11.631000	20.903089	0.000456	20.812056
18.019712	-3.022200	3.879000	-11.723000	20.911771	0.000457	20.815049
19.002915	-3.013700	3.877100	-11.683000	20.927445	0.000457	20.813181
20.004505	-3.009000	3.877800	-11.667000	20.930264	0.000457	20.825958
21.002753	-3.022300	3.876800	-11.716000	20.919134	0.000457	20.801076
22.007200	-3.017500	3.875700	-11.695000	20.930013	0.000459	20.827129
23.007265	-3.000800	3.875200	-11.628000	20.958282	0.000454	20.824582
24.011349	-3.006000	3.875100	-11.648000	20.957706	0.000455	20.820686
25.002780	-3.006300	3.873900	-11.645000	20.963246	0.000453	20.838081
26.006689	-2.988800	3.873300	-11.576000	20.980961	0.000452	20.819763
27.009406	-2.952300	3.874100	-11.436000	20.990145	0.000455	20.820888
28.007082	-2.992100	3.872100	-11.585000	21.002117	0.000453	20.832862
29.004235	-2.997500	3.872600	-11.607000	21.006536	0.000454	20.809781
30.003697	-3.000300	3.870900	-11.613000	21.042335	0.000454	20.814767
31.004073	-2.994500	3.871700	-11.592000	21.037920	0.000453	20.832162
32.004187	-2.992500	3.870400	-11.581000	21.037647	0.000452	20.835208
33.009844	-2.997400	3.871000	-11.602000	21.050168	0.000452	20.851049
34.003602	-3.005800	3.869600	-11.630000	21.049821	0.000453	20.856392
35.006003	-3.000500	3.869200	-11.608000	21.059900	0.000454	20.835180
36.008334	-2.983800	3.868700	-11.542000	21.085922	0.000451	20.826122
37.008580	-3.002100	3.869200	-11.614000	21.102089	0.000451	20.833758
38.006627	-2.987300	3.868000	-11.554000	21.098792	0.000453	20.825719
39.007230	-2.985100	3.867600	-11.545000	21.116059	0.000451	20.857687
40.006253	-2.980500	3.867400	-11.526000	21.089587	0.000449	20.856339
41.007716	-2.985400	3.868500	-11.548000	21.116982	0.000451	20.829214
42.007054	-2.997700	3.867900	-11.594000	21.128008	0.000451	20.839769
43.012886	-2.995600	3.866700	-11.583000	21.156127	0.000450	20.839921
44.006501	-2.982900	3.867400	-11.535000	21.148766	0.000450	20.847730
45.015341	-3.005000	3.864700	-11.613000	21.144751	0.000449	20.854145
46.015361	-3.007800	3.865100	-11.626000	21.164786	0.000450	20.827247
47.015713	-2.998600	3.865400	-11.589000	21.175013	0.000447	20.845062
48.023296	-3.002800	3.864700	-11.604000	21.176760	0.000450	20.854870
49.014218	-3.013100	3.863800	-11.641000	21.201931	0.000449	20.841170
50.011012	-2.976800	3.865300	-11.505000	21.206073	0.000449	20.856219
51.007718	-3.004000	3.865600	-11.611000	21.211485	0.000448	20.840296
52.007486	-3.007400	3.863300	-11.617000	21.224506	0.000450	20.837675
53.014224	-3.006800	3.863400	-11.615000	21.222337	0.000448	20.836928
54.007461	-3.027500	3.863200	-11.695000	21.240649	0.000448	20.849556
55.008232	-3.017800	3.862800	-11.656000	21.266912	0.000447	20.859708
56.010211	-3.007900	3.862000	-11.615000	21.241993	0.000447	20.867495
57.010264	-3.001900	3.862300	-11.593000	21.263399	0.000449	20.860935
58.023210	-3.008200	3.861700	-11.616000	21.296849	0.000449	20.840820
59.010258	-2.992500	3.863000	-11.559000	21.289966	0.000447	20.850055
60.013462	-2.998100	3.862800	-11.580000	21.313837	0.000447	20.860185
61.018245	-2.998100	3.861800	-11.577000	21.289043	0.000448	20.851976
62.017061	-3.000600	3.861100	-11.585000	21.319772	0.000450	20.867545
63.021663	-3.023600	3.861100	-11.674000	21.335464	0.000449	20.863805
64.037662	-3.014800	3.859600	-11.635000	21.339005	0.000447	20.854071
65.014910	-2.986100	3.861500	-11.530000	21.349657	0.000447	20.838651
66.016492	-2.988500	3.860000	-11.534000	21.351751	0.000449	20.866349
67.021478	-2.994400	3.860400	-11.559000	21.371907	0.000448	20.856643
68.019732	-3.015700	3.859200	-11.637000	21.371953	0.000450	20.871387
69.027039	-2.987700	3.859900	-11.531000	21.408445	0.000450	20.860482
70.033514	-2.982200	3.860900	-11.513000	21.393633	0.000448	20.873637
71.018828	-3.029200	3.859300	-11.689000	21.419521	0.000448	20.869193
72.014934	-2.990100	3.861000	-11.544000	21.414305	0.000448	20.875354
73.019128	-3.004000	3.860600	-11.595000	21.420840	0.000448	20.867669
74.019612	-3.022700	3.857700	-11.660000	21.421113	0.000450	20.883113
75.018806	-3.013200	3.858400	-11.625000	21.434534	0.000449	20.863352
76.019011	-2.984800	3.859400	-11.519000	21.436327	0.000450	20.848077
77.035527	-3.004900	3.858800	-11.594000	21.442810	0.000450	20.867365
78.022296	-2.994100	3.858900	-11.553000	21.466079	0.000451	20.873578
79.022401	-3.014000	3.857600	-11.625000	21.471939	0.000448	20.845778
80.021447	-3.003000	3.858100	-11.585000	21.462558	0.000452	20.865787
81.022920	-3.003400	3.857100	-11.584000	21.479069	0.000451	20.870928
82.019211	-2.994300	3.857800	-11.550000	21.483507	0.000450	20.878214
83.036619	-2.993900	3.857700	-11.548000	21.512986	0.000452	20.859348
84.019524	-3.002100	3.856300	-11.577000	21.508743	0.000452	20.877860
85.020446	-2.981900	3.856900	-11.500000	21.528539	0.000451	20.868746
86.025481	-3.001300	3.856300	-11.572000	21.526471	0.000449	20.880426
87.020512	-3.024900	3.856000	-11.664000	21.546044	0.000452	20.880097
88.020326	-3.005500	3.856100	-11.587000	21.554325	0.000452	20.885539
89.024768	-2.980100	3.856500	-11.492000	21.565546	0.000453	20.896766
90.022097	-2.980200	3.856600	-11.493000	21.557961	0.000452	20.884436
91.028110	-2.979700	3.856200	-11.489000	21.595094	0.000450	20.893617
92.041269	-3.033100	3.855300	-11.692000	21.594995	0.000452	20.877398
93.021586	-2.993600	3.855300	-11.540000	21.607710	0.000450	20.877795
94.023009	-3.004000	3.854700	-11.578000	21.627837	0.000451	20.899356
95.026430	-3.016700	3.855000	-11.629000	21.623566	0.000453	20.873747
96.039313	-3.014000	3.854300	-11.616000	21.618178	0.000454	20.869304
97.024918	-2.964900	3.856600	-11.434000	21.660244	0.000453	20.889114
98.031163	-2.997000	3.854500	-11.551000	21.653512	0.000453	20.880955
99.027980	-2.979200	3.854500	-11.482000	21.649170	0.000452	20.883248
100.037163	-3.001000	3.853300	-11.563000	21.662387	0.000454	20.889836
101.043010	-2.991900	3.855900	-11.535000	21.674430	0.000451	20.886242
102.031469	-3.025200	3.853100	-11.656000	21.675328	0.000454	20.871494
103.024717	-2.989800	3.854500	-11.523000	21.673430	0.000454	20.884767
104.026514	-2.989200	3.853600	-11.518000	21.693174	0.000456	20.867069
105.032114	-2.977700	3.855000	-11.478000	21.691979	0.000456	20.881993
106.029061	-3.006800	3.854500	-11.588000	21.716538	0.000452	20.894243
107.026979	-2.991200	3.854800	-11.530000	21.718755	0.000453	20.896461
108.029208	-3.005700	3.853100	-11.581000	21.722994	0.000452	20.891221
109.032263	-3.010800	3.853200	-11.600000	21.718928	0.000455	20.857283
110.028542	-3.011400	3.853100	-11.602000	21.734662	0.000453	20.876347
111.028901	-2.985900	3.853700	-11.505000	21.751142	0.000455	20.880038
112.036307	-2.989700	3.853300	-11.519000	21.763407	0.000455	20.852486
113.027750	-3.002900	3.851900	-11.565000	21.751188	0.000454	20.893833
114.029461	-2.999100	3.853600	-11.556000	21.776145	0.000456	20.871872
115.034581	-2.985400	3.852600	-11.501000	21.791228	0.000455	20.855200
116.034602	-2.981200	3.851600	-11.482000	21.784044	0.000454	20.865079
117.039133	-3.007000	3.850800	-11.578000	21.785041	0.000455	20.860388
118.037987	-3.017300	3.851400	-11.620000	21.798030	0.000456	20.875284
119.038139	-3.005300	3.851900	-11.576000	21.818875	0.000458	20.866750
120.034987	-3.009400	3.851800	-11.590000	21.829898	0.000455	20.869247
121.038809	-3.011500	3.849700	-11.592000	21.864003	0.000456	20.877304
122.029949	-3.006700	3.852300	-11.581000	21.849466	0.000458	20.868919
123.045039	-3.014700	3.851400	-11.610000	21.854005	0.000455	20.877729
124.034653	-2.987400	3.850500	-11.502000	21.857470	0.000457	20.841844
125.038026	-3.023500	3.848900	-11.637000	21.866495	0.000457	20.851351
126.037265	-3.007400	3.850500	-11.579000	21.895091	0.000456	20.851051
127.051069	-2.996000	3.850900	-11.536000	21.893171	0.000455	20.859560
128.037512	-3.027300	3.849400	-11.652000	21.902422	0.000457	20.860285
129.038153	-3.000700	3.849400	-11.550000	21.924763	0.000458	20.847087
130.039761	-3.006800	3.850700	-11.577000	21.935160	0.000459	20.868398
131.040585	-3.015500	3.849600	-11.608000	21.946776	0.000458	20.837828
132.041728	-3.006400	3.849700	-11.572000	21.952389	0.000460	20.853403
133.055026	-2.991700	3.848400	-11.512000	21.960544	0.000460	20.848290
134.042633	-3.010200	3.849700	-11.587000	21.954113	0.000459	20.853233
135.048078	-2.991200	3.848200	-11.509000	21.964906	0.000459	20.856923
136.043952	-2.995900	3.849800	-11.533000	21.990883	0.000460	20.858271
137.043726	-2.985500	3.849100	-11.491000	21.991109	0.000459	20.861342
138.046721	-3.023200	3.848200	-11.633000	21.993177	0.000460	20.847766
139.060503	-2.997200	3.848300	-11.534000	21.966757	0.000462	20.854509
140.040695	-2.995300	3.847800	-11.525000	21.998514	0.000460	20.839359
141.042056	-3.042800	3.846600	-11.703000	22.000164	0.000460	20.835795
142.056131	-3.008000	3.846900	-11.571000	22.013749	0.000462	20.814307
143.049878	-3.006600	3.845900	-11.562000	22.024469	0.000463	20.847797
144.044224	-2.974100	3.847800	-11.442000	22.040651	0.000463	20.846452
145.044572	-2.988800	3.847600	-11.499000	22.059544	0.000462	20.840710
146.050526	-2.984700	3.847000	-11.481000	22.058225	0.000462	20.827062
147.047290	-3.012700	3.846600	-11.588000	22.059695	0.000462	20.835172
148.064859	-3.005400	3.847500	-11.562000	22.057157	0.000464	20.833105
149.050984	-2.996600	3.846800	-11.526000	22.039929	0.000462	20.834825
150.045248	-2.976400	3.846500	-11.448000	22.043421	0.000465	20.846381
151.052879	-3.001300	3.844700	-11.539000	22.071641	0.000464	20.815838
152.041411	-3.003800	3.846000	-11.553000	22.090116	0.000465	20.834807
153.043777	-2.993200	3.846300	-11.512000	22.067208	0.000464	20.818038
154.052348	-2.990700	3.846200	-11.503000	22.104875	0.000464	20.830617
155.047580	-2.975100	3.845700	-11.440000	22.100535	0.000466	20.808255
156.047079	-3.008500	3.845400	-11.568000	22.092116	0.000464	20.839653
157.057558	-3.008700	3.844800	-11.567000	22.123721	0.000465	20.821983
158.047882	-2.988400	3.844700	-11.489000	22.126887	0.000465	20.818990
159.048213	-3.005100	3.844500	-11.552000	22.158421	0.000466	20.820688
160.057943	-3.016700	3.843300	-11.593000	22.166574	0.000465	20.826480
161.054686	-2.981300	3.844900	-11.462000	22.132648	0.000466	20.819541
162.051292	-2.991800	3.844700	-11.501000	22.117573	0.000467	20.829579
163.051838	-2.985700	3.845300	-11.480000	22.156560	0.000468	20.802705
164.056760	-2.989100	3.844400	-11.489000	22.161371	0.000468	20.845926
165.053102	-2.986500	3.844100	-11.479000	22.157260	0.000467	20.803879
166.050771	-3.019900	3.842700	-11.604000	22.197165	0.000467	20.809693
167.048090	-2.994100	3.843900	-11.508000	22.198790	0.000467	20.817010
168.057333	-3.020700	3.842700	-11.607000	22.175860	0.000470	20.809225
169.054191	-3.012000	3.843800	-11.577000	22.207940	0.000468	20.821903
170.053284	-2.970600	3.844000	-11.418000	22.210657	0.000468	20.806132
171.054087	-2.971200	3.843400	-11.419000	22.215223	0.000470	20.810229
172.052657	-2.999100	3.842300	-11.521000	22.228706	0.000468	20.805237
173.058260	-3.015800	3.841500	-11.584000	22.243163	0.000469	20.791263
174.052606	-3.032600	3.841600	-11.648000	22.245407	0.000470	20.802045
175.053327	-3.022100	3.840600	-11.605000	22.245234	0.000470	20.798078
176.053920	-2.985200	3.842000	-11.468000	22.261536	0.000470	20.804444
177.054591	-2.999400	3.842200	-11.523000	22.289277	0.000471	20.808987
178.049486	-3.009400	3.841300	-11.559000	22.268540	0.000470	20.792965
179.057972	-2.994300	3.840800	-11.498000	22.278209	0.000471	20.804069
180.050613	-2.982800	3.841300	-11.457000	22.274473	0.000472	20.800802
181.056808	-3.007300	3.840400	-11.549000	22.314699	0.000474	20.803148
182.054608	-2.996800	3.841000	-11.509000	22.310988	0.000473	20.806071
183.061982	-3.001800	3.840200	-11.526000	22.295189	0.000472	20.802578
184.068485	-3.004700	3.841000	-11.540000	22.317995	0.000474	20.807871
185.058350	-2.976200	3.840300	-11.428000	22.337911	0.000473	20.779924
186.056577	-3.009300	3.840600	-11.557000	22.342916	0.000475	20.815755
187.054059	-2.984700	3.839500	-11.458000	22.340477	0.000474	20.810468
188.054355	-2.970400	3.840700	-11.408000	22.356530	0.000474	20.783395
189.056592	-3.041900	3.838100	-11.673000	22.377241	0.000475	20.803186
190.055080	-2.980400	3.839900	-11.443000	22.366000	0.000477	20.810422
191.052191	-3.000300	3.838300	-11.515000	22.392293	0.000474	20.797871
192.062082	-3.018300	3.837400	-11.581000	22.395060	0.000473	20.797323
193.072516	-3.012500	3.837500	-11.560000	22.391774	0.000476	20.812998
194.057568	-2.985700	3.838700	-11.461000	22.392198	0.000476	20.788292
195.054396	-3.013000	3.837500	-11.562000	22.413211	0.000478	20.784679
196.067264	-3.001600	3.837700	-11.518000	22.427539	0.000479	20.802821
197.076837	-3.022100	3.836600	-11.594000	22.426444	0.000477	20.798879
198.057699	-3.001500	3.837000	-11.516000	22.439429	0.000475	20.782485
199.061629	-3.006400	3.837300	-11.536000	22.462657	0.000478	20.791522
200.053795	-3.018400	3.836600	-11.579000	22.457774	0.000478	20.786157
201.064683	-3.001800	3.836800	-11.516000	22.445785	0.000478	20.802601
202.061996	-3.004800	3.837000	-11.528000	22.457897	0.000481	20.791023
203.059980	-2.969300	3.836500	-11.391000	22.470161	0.000479	20.787657
204.070153	-2.990400	3.836400	-11.471000	22.487008	0.000477	20.795994
205.064292	-2.997100	3.836800	-11.497000	22.536917	0.000481	20.787657
206.063870	-3.012200	3.834900	-11.550000	22.505250	0.000481	20.751200
207.062232	-2.985000	3.835100	-11.446000	22.529021	0.000479	20.795870
208.068395	-2.996100	3.834900	-11.489000	22.516785	0.000483	20.788832
209.054808	-3.005000	3.835200	-11.524000	22.525858	0.000481	20.776107
210.055937	-3.013900	3.834800	-11.557000	22.550304	0.000481	20.802487
211.066261	-3.001700	3.833400	-11.506000	22.563807	0.000482	20.772863
212.057113	-3.015800	3.834000	-11.562000	22.568192	0.000483	20.772987
213.064342	-2.993600	3.835300	-11.481000	22.570785	0.000481	20.774635
214.064550	-3.012400	3.834200	-11.549000	22.583168	0.000482	20.797469
215.067529	-3.002400	3.833500	-11.508000	22.583842	0.000483	20.778705
216.074445	-3.006000	3.833100	-11.521000	22.572307	0.000483	20.780428
217.063167	-2.996200	3.834100	-11.487000	22.573625	0.000485	20.793128
218.063138	-2.965600	3.835600	-11.374000	22.586782	0.000481	20.778330
219.064309	-2.979700	3.833900	-11.422000	22.577140	0.000482	20.771518
220.072833	-2.965200	3.833700	-11.366000	22.596928	0.000485	20.769999
221.070934	-3.005500	3.833100	-11.519000	22.623361	0.000485	20.765180
222.071872	-3.006400	3.830800	-11.515000	22.599069	0.000483	20.770721
223.068642	-2.991700	3.833100	-11.466000	22.592169	0.000485	20.764759
224.065282	-2.998700	3.830900	-11.487000	22.604704	0.000484	20.778262
225.087107	-2.984600	3.832000	-11.435000	22.642024	0.000486	20.784822
226.071443	-3.006200	3.830400	-11.514000	22.666414	0.000489	20.762310
227.066016	-2.988400	3.831000	-11.447000	22.670526	0.000487	20.783025
228.080267	-2.994100	3.830000	-11.467000	22.666541	0.000490	20.784249
229.065419	-2.971700	3.830500	-11.382000	22.664973	0.000489	20.755650
230.068670	-3.003700	3.830500	-11.504000	22.667584	0.000488	20.785293
231.066429	-2.984700	3.831400	-11.435000	22.645487	0.000489	20.769798
232.065945	-2.999800	3.830200	-11.489000	22.685523	0.000489	20.762484
233.078774	-3.040800	3.829000	-11.642000	22.670799	0.000491	20.763383
234.074375	-2.996900	3.830900	-11.479000	22.697580	0.000494	20.772190
235.067313	-2.976400	3.831300	-11.402000	22.711678	0.000493	20.780149
236.068748	-3.002300	3.829100	-11.495000	22.698922	0.000492	20.770690
237.072137	-2.972300	3.829400	-11.381000	22.728790	0.000492	20.778323
238.066811	-2.982900	3.830100	-11.425000	22.747025	0.000492	20.781416
239.076821	-2.989600	3.827300	-11.441000	22.726875	0.000492	20.786836
240.079544	-2.996400	3.829400	-11.473000	22.713992	0.000491	20.769190
241.071565	-2.985800	3.828600	-11.430000	22.720068	0.000491	20.753465
242.079080	-3.003600	3.829000	-11.500000	22.741694	0.000494	20.771334
243.082133	-3.001700	3.827700	-11.488000	22.798519	0.000494	20.770885
244.079361	-3.012800	3.827400	-11.531000	22.782172	0.000494	20.760673
245.071046	-2.984700	3.827600	-11.423000	22.780656	0.000495	20.773380
246.077693	-2.987600	3.827800	-11.435000	22.780901	0.000495	20.755606
247.078728	-3.006700	3.826700	-11.504000	22.809749	0.000494	20.775022
248.078907	-2.993200	3.827100	-11.455000	22.818587	0.000495	20.761590
249.072054	-2.982800	3.827600	-11.416000	22.816496	0.000496	20.768030
250.080799	-3.003600	3.827900	-11.497000	22.807700	0.000499	20.762064
251.078305	-3.001300	3.825600	-11.481000	22.815895	0.000497	20.746091
252.077479	-2.995700	3.826100	-11.460000	22.832412	0.000497	20.759793
253.081718	-3.007400	3.826100	-11.506000	22.831883	0.000497	20.757366
254.080728	-2.988700	3.826900	-11.437000	22.823211	0.000497	20.777129
255.081824	-2.977200	3.826300	-11.391000	22.805847	0.000497	20.765898
256.073806	-3.014800	3.825100	-11.531000	22.814088	0.000497	20.757558
257.079921	-2.995700	3.826000	-11.460000	22.842239	0.000498	20.756362
258.077523	-2.993400	3.824700	-11.447000	22.842112	0.000498	20.738216
259.080704	-3.003000	3.824100	-11.483000	22.846394	0.000499	20.754359
260.088126	-2.994700	3.824100	-11.451000	22.841982	0.000499	20.750414
261.078132	-2.981900	3.823100	-11.400000	22.840290	0.000498	20.764366
262.082610	-3.007400	3.823200	-11.497000	22.853759	0.000499	20.757945
263.084064	-2.985300	3.823500	-11.412000	22.864571	0.000499	20.766880
264.079142	-2.998400	3.821500	-11.456000	22.880486	0.000499	20.742046
265.075625	-3.001100	3.823800	-11.475000	22.932423	0.000499	20.760415
266.078339	-3.007900	3.822700	-11.498000	22.921909	0.000501	20.756519
267.078858	-2.999800	3.821500	-11.463000	22.935284	0.000500	20.758540
268.080412	-2.976100	3.823600	-11.378000	22.935352	0.000499	20.737270
269.078440	-3.023800	3.821300	-11.554000	22.924167	0.000501	20.757833
270.095227	-2.992800	3.823000	-11.440000	22.926434	0.000502	20.759630
271.078087	-2.997500	3.821500	-11.454000	22.935126	0.000501	20.770236
272.083211	-3.002100	3.822000	-11.473000	22.939605	0.000501	20.760024
