LabVIEW Measurement	
Writer_Version	2
Reader_Version	2
Separator	Tab
Decimal_Separator	.
Multi_Headings	No
X_Columns	One
Time_Pref	Absolute
Operator	admin
Description	Clolumns are: time, Current, Voltage, Power, Battery Temp, and Chamber Temp
Date	2024/08/16
Time	13:07:17.8513970375061035156
***End_of_Header***	
	
Channels	6						
Samples	1	1	1	1	1	1	
Date	2024/09/09	2024/09/09	2024/09/09	2024/09/09	2024/09/09	2024/09/09	
Time	05:20:44.0588054656982421875	05:20:44.06568145751953125	05:20:44.0726809501647949219	05:20:44.0390152931213378906	05:20:44.0390152931213378906	05:20:44.0390152931213378906	
X_Dimension	Time	Time	Time	Time	Time	Time	
X0	0.0000000000000000E+0	0.0000000000000000E+0	0.0000000000000000E+0	0.0000000000000000E+0	0.0000000000000000E+0	0.0000000000000000E+0	
Delta_X	1.000000	1.000000	1.000000	1.000000	1.000000	1.000000	
***End_of_Header***							
X_Value	Untitled	Untitled 1	Untitled 2	Untitled 3	Untitled 4	Untitled 5	Comment
0.000000	0.024287	4.089000	0.099515	20.764094	0.000448	20.760774
0.995505	-2.991600	3.921900	-11.731000	20.739838	0.000448	20.766391
1.995343	-3.011000	3.914600	-11.786000	20.761286	0.000446	20.775986
3.000551	-2.999000	3.910600	-11.727000	20.775354	0.000446	20.777725
4.002986	-3.005200	3.908100	-11.744000	20.782721	0.000445	20.768971
4.998210	-3.010600	3.903800	-11.752000	20.782711	0.000445	20.767063
6.001663	-2.989400	3.902100	-11.663000	20.767830	0.000442	20.779210
7.000485	-3.001700	3.899400	-11.704000	20.777386	0.000445	20.787344
7.998659	-2.976800	3.898600	-11.604000	20.792792	0.000443	20.770981
9.002708	-3.015600	3.895600	-11.746000	20.791771	0.000443	20.782288
10.001947	-2.999200	3.895700	-11.683000	20.819041	0.000443	20.788696
10.998296	-2.983000	3.894700	-11.617000	20.806166	0.000441	20.761595
11.999769	-2.995300	3.891300	-11.655000	20.845401	0.000440	20.773804
13.001022	-3.009600	3.889600	-11.705000	20.823444	0.000442	20.800685
14.000728	-3.007600	3.889100	-11.696000	20.821526	0.000438	20.760834
15.000131	-3.006600	3.888400	-11.690000	20.836967	0.000440	20.798561
15.999962	-3.019300	3.887800	-11.737000	20.835241	0.000440	20.788774
17.001745	-3.008500	3.886100	-11.691000	20.853575	0.000440	20.805687
18.001848	-2.985600	3.885000	-11.598000	20.884114	0.000440	20.787864
19.002947	-2.998600	3.884800	-11.648000	20.863618	0.000436	20.780169
20.004073	-2.992900	3.883400	-11.622000	20.884298	0.000437	20.777617
21.000321	-2.980300	3.884100	-11.575000	20.875729	0.000437	20.790858
22.001606	-2.996400	3.881700	-11.630000	20.902084	0.000436	20.802517
23.000334	-2.988300	3.882300	-11.601000	20.915324	0.000434	20.796792
24.000066	-2.989700	3.880500	-11.600000	20.928138	0.000438	20.785426
25.001534	-3.013400	3.879200	-11.688000	20.925416	0.000433	20.804988
26.000648	-2.995300	3.879800	-11.620000	20.944515	0.000437	20.785683
27.001015	-3.015100	3.879200	-11.695000	20.939750	0.000435	20.810315
28.003431	-3.013300	3.879300	-11.689000	20.960575	0.000434	20.827349
29.003522	-2.993800	3.878800	-11.611000	20.951908	0.000435	20.786913
30.002715	-2.988000	3.877400	-11.584000	20.981239	0.000434	20.800601
31.005014	-2.977600	3.878500	-11.548000	20.990030	0.000434	20.808919
32.003336	-2.988500	3.877200	-11.586000	20.985241	0.000432	20.805552
33.008387	-3.010300	3.875800	-11.666000	20.987952	0.000436	20.790246
34.003983	-3.011000	3.876400	-11.671000	21.024699	0.000433	20.784800
35.006434	-3.005100	3.874600	-11.643000	21.011439	0.000434	20.772485
36.006965	-3.003800	3.875800	-11.641000	21.008061	0.000432	20.799453
37.004795	-2.988100	3.875400	-11.579000	21.041622	0.000431	20.795562
38.003977	-2.981400	3.874000	-11.549000	21.039823	0.000432	20.803720
39.007220	-3.016600	3.872000	-11.680000	21.028581	0.000432	20.806701
40.004977	-2.969500	3.874900	-11.506000	21.074188	0.000431	20.802057
41.004082	-3.000700	3.873500	-11.623000	21.063225	0.000431	20.813851
42.005044	-3.000500	3.872300	-11.618000	21.082685	0.000430	20.809608
43.004780	-2.994300	3.873000	-11.596000	21.106885	0.000431	20.812477
44.005007	-3.005700	3.872200	-11.638000	21.122238	0.000431	20.802704
45.004689	-2.997800	3.871000	-11.603000	21.096167	0.000431	20.834472
46.003974	-2.989900	3.871700	-11.575000	21.114047	0.000431	20.797356
47.003607	-2.998300	3.871000	-11.606000	21.131210	0.000432	20.809782
48.005094	-2.981400	3.872300	-11.545000	21.123528	0.000430	20.803046
49.005023	-2.986700	3.870400	-11.559000	21.139330	0.000433	20.822646
50.005169	-3.006400	3.869500	-11.633000	21.147814	0.000429	20.817856
51.005229	-3.010100	3.870200	-11.649000	21.139271	0.000431	20.805517
52.010850	-3.010500	3.870500	-11.650000	21.169377	0.000429	20.819037
53.007355	-3.003200	3.869800	-11.621000	21.183207	0.000429	20.819121
54.006855	-2.995600	3.869500	-11.590000	21.180826	0.000432	20.802989
55.005659	-3.007600	3.868200	-11.633000	21.202278	0.000430	20.817810
56.005854	-2.990600	3.868500	-11.568000	21.206059	0.000431	20.824437
57.007166	-2.995300	3.869000	-11.588000	21.219745	0.000430	20.818688
58.009930	-3.026500	3.868100	-11.706000	21.236965	0.000430	20.816000
59.007671	-3.004500	3.867700	-11.619000	21.230295	0.000428	20.826396
60.011565	-2.981800	3.867800	-11.532000	21.238268	0.000429	20.817304
61.009075	-3.014500	3.867700	-11.658000	21.248549	0.000431	20.811467
62.006776	-3.008300	3.868400	-11.635000	21.269769	0.000429	20.823213
63.012111	-3.004600	3.868900	-11.622000	21.253522	0.000429	20.835882
64.007374	-2.999400	3.867000	-11.599000	21.289836	0.000430	20.830011
65.006808	-3.001200	3.866900	-11.604000	21.279349	0.000430	20.844650
66.008050	-2.994400	3.866800	-11.578000	21.311153	0.000429	20.828578
67.011450	-2.990900	3.867100	-11.564000	21.311434	0.000429	20.844506
68.007760	-3.000000	3.867700	-11.602000	21.302939	0.000430	20.831265
69.009936	-3.018900	3.865700	-11.669000	21.328643	0.000430	20.840860
70.012368	-2.994900	3.865300	-11.574000	21.319735	0.000429	20.840009
71.008968	-3.017600	3.864500	-11.660000	21.336591	0.000429	20.835062
72.009616	-3.019000	3.864200	-11.665000	21.338682	0.000430	20.843317
73.012844	-3.011000	3.864900	-11.636000	21.371992	0.000431	20.827332
74.010646	-2.997000	3.865400	-11.583000	21.377948	0.000430	20.840402
75.012713	-3.020200	3.863900	-11.669000	21.378738	0.000431	20.856840
76.011901	-2.961800	3.866200	-11.450000	21.398291	0.000430	20.829936
77.012126	-3.022300	3.864400	-11.678000	21.408803	0.000430	20.838557
78.010999	-3.001900	3.863700	-11.597000	21.400430	0.000432	20.835395
79.013570	-2.998300	3.865100	-11.587000	21.429376	0.000430	20.839227
80.016319	-2.988000	3.864400	-11.546000	21.417919	0.000431	20.844832
81.011103	-2.981600	3.864300	-11.520000	21.442976	0.000432	20.834816
82.011576	-2.989900	3.864100	-11.552000	21.435115	0.000428	20.827425
83.010801	-3.005900	3.864200	-11.614000	21.462394	0.000432	20.844762
84.012279	-3.010600	3.863400	-11.630000	21.452091	0.000430	20.834927
85.013975	-3.016700	3.863500	-11.654000	21.475579	0.000431	20.819549
86.014606	-2.996800	3.862500	-11.573000	21.466384	0.000429	20.832159
87.015042	-2.990300	3.864400	-11.554000	21.503527	0.000430	20.835185
88.016165	-2.994000	3.862900	-11.565000	21.491718	0.000430	20.830482
89.014996	-2.971400	3.863600	-11.479000	21.489398	0.000429	20.841910
90.017184	-2.998400	3.862800	-11.581000	21.516579	0.000431	20.842081
91.014259	-2.993200	3.863100	-11.562000	21.526118	0.000433	20.835031
92.017510	-3.014600	3.863400	-11.645000	21.528512	0.000430	20.836952
93.019526	-3.019000	3.861200	-11.656000	21.541550	0.000431	20.838144
94.016308	-2.990200	3.861800	-11.546000	21.529376	0.000434	20.840187
95.022449	-2.989500	3.862400	-11.546000	21.546776	0.000434	20.818718
96.016917	-2.989900	3.862000	-11.546000	21.547055	0.000433	20.825161
97.017682	-3.000200	3.863300	-11.590000	21.551065	0.000433	20.825855
98.017769	-2.996500	3.860800	-11.568000	21.547347	0.000431	20.834937
99.017529	-2.988200	3.861500	-11.538000	21.563472	0.000432	20.844907
100.018448	-3.008400	3.861700	-11.617000	21.567639	0.000434	20.818258
101.019871	-2.995600	3.861600	-11.567000	21.589654	0.000431	20.820848
102.017235	-3.004600	3.859700	-11.596000	21.619993	0.000433	20.831293
103.023004	-2.995300	3.860300	-11.562000	21.622825	0.000432	20.811843
104.017756	-3.004400	3.859700	-11.596000	21.623748	0.000433	20.815611
105.018247	-2.994500	3.859600	-11.557000	21.620651	0.000434	20.813460
106.018133	-2.993700	3.860400	-11.556000	21.650003	0.000434	20.801108
107.017795	-2.967900	3.860500	-11.457000	21.667875	0.000432	20.812829
108.020644	-2.983800	3.858900	-11.513000	21.662945	0.000433	20.828284
109.022529	-3.012400	3.858800	-11.623000	21.667878	0.000435	20.836065
110.018883	-2.988600	3.859100	-11.532000	21.669470	0.000434	20.813477
111.023954	-2.985000	3.859300	-11.519000	21.687098	0.000434	20.813575
112.020674	-3.022700	3.857200	-11.658000	21.678037	0.000434	20.809722
113.021107	-2.994600	3.857800	-11.552000	21.695567	0.000434	20.800713
114.022853	-3.006700	3.858600	-11.601000	21.708808	0.000435	20.817284
115.023984	-3.010100	3.858900	-11.615000	21.717848	0.000435	20.801676
116.019917	-2.996600	3.859300	-11.563000	21.713062	0.000436	20.798308
117.021313	-3.000400	3.856700	-11.570000	21.725467	0.000435	20.821154
118.021133	-2.999200	3.858700	-11.572000	21.751416	0.000433	20.806347
119.020706	-3.030400	3.856900	-11.687000	21.778883	0.000434	20.790689
120.019899	-2.995300	3.856600	-11.551000	21.775055	0.000436	20.814833
121.022564	-3.011300	3.856900	-11.613000	21.800285	0.000434	20.818748
122.021753	-2.983500	3.856700	-11.505000	21.809823	0.000435	20.828768
123.021265	-3.003600	3.857100	-11.584000	21.822370	0.000436	20.800549
124.022771	-3.016700	3.857500	-11.636000	21.805402	0.000436	20.808223
125.023870	-2.984900	3.859100	-11.518000	21.782053	0.000436	20.800974
126.023472	-2.986200	3.857700	-11.519000	21.824010	0.000435	20.810252
127.022531	-3.013300	3.856900	-11.621000	21.819614	0.000435	20.803481
128.022631	-2.990700	3.856500	-11.533000	21.822335	0.000437	20.784393
129.023979	-3.012300	3.856300	-11.616000	21.826090	0.000435	20.776297
130.024229	-3.015200	3.856100	-11.626000	21.836146	0.000436	20.809122
131.028246	-2.973300	3.856900	-11.467000	21.831872	0.000437	20.800577
132.024177	-3.008700	3.855500	-11.600000	21.839051	0.000437	20.790219
133.025151	-3.004800	3.853800	-11.579000	21.859592	0.000439	20.792760
134.027690	-3.013300	3.855100	-11.616000	21.871518	0.000438	20.793792
135.025133	-3.023500	3.854800	-11.654000	21.875903	0.000439	20.801975
136.050040	-3.005000	3.854700	-11.583000	21.895204	0.000439	20.796163
137.029479	-2.995400	3.856100	-11.550000	21.902992	0.000437	20.788311
138.028877	-3.014500	3.855000	-11.620000	21.884381	0.000440	20.800504
139.029304	-3.005900	3.854200	-11.583000	21.927756	0.000439	20.806462
140.032534	-2.985500	3.854900	-11.507000	21.917930	0.000439	20.784299
141.026099	-2.998600	3.855900	-11.561000	21.922643	0.000440	20.798973
142.028717	-3.012000	3.854400	-11.608000	21.931897	0.000440	20.782632
143.030096	-2.997100	3.853900	-11.550000	21.930466	0.000442	20.788786
144.027892	-3.002200	3.853600	-11.569000	21.917774	0.000440	20.773236
145.030734	-3.022700	3.854000	-11.649000	21.931862	0.000440	20.781175
146.030389	-3.012100	3.853900	-11.607000	21.945780	0.000441	20.779459
147.027603	-3.014800	3.852900	-11.615000	21.948866	0.000442	20.781600
148.029737	-2.991000	3.853300	-11.524000	21.976364	0.000442	20.774986
149.031115	-2.996700	3.853600	-11.547000	21.983277	0.000439	20.782855
150.031125	-2.994200	3.853000	-11.536000	22.015594	0.000443	20.769212
151.032805	-2.997500	3.852100	-11.545000	22.013445	0.000443	20.795037
152.031487	-2.996000	3.854100	-11.546000	22.004965	0.000444	20.777538
153.032500	-2.976800	3.853100	-11.469000	22.014295	0.000444	20.769334
154.032815	-3.003600	3.851900	-11.569000	22.021811	0.000442	20.768323
155.032971	-2.996500	3.851400	-11.540000	22.016649	0.000445	20.774062
156.033623	-2.992000	3.850700	-11.520000	22.012132	0.000444	20.780446
157.032141	-3.011600	3.853000	-11.603000	22.012665	0.000444	20.764858
158.033055	-2.980000	3.852400	-11.479000	22.043974	0.000445	20.777709
159.036862	-3.003400	3.853000	-11.571000	22.046743	0.000447	20.779058
160.030791	-3.010600	3.850100	-11.590000	22.043003	0.000445	20.761089
161.033218	-2.996200	3.851000	-11.537000	22.044145	0.000447	20.758913
162.035810	-2.995500	3.850400	-11.532000	22.072671	0.000446	20.773246
163.031999	-3.008600	3.851000	-11.584000	22.081743	0.000447	20.766681
164.033868	-2.989500	3.850600	-11.510000	22.093608	0.000449	20.769551
165.034950	-2.996800	3.849800	-11.536000	22.105727	0.000446	20.783580
166.033583	-2.991000	3.850600	-11.515000	22.115976	0.000446	20.770133
167.032809	-3.010700	3.850400	-11.591000	22.124574	0.000446	20.768310
168.034758	-3.015700	3.850400	-11.611000	22.124027	0.000449	20.772504
169.033305	-2.992400	3.849500	-11.519000	22.132434	0.000448	20.785662
170.033844	-3.000900	3.850000	-11.552000	22.128474	0.000447	20.773163
171.036094	-3.010700	3.849100	-11.587000	22.153174	0.000448	20.781297
172.037846	-2.998400	3.848000	-11.536000	22.125438	0.000448	20.777235
173.035316	-2.985100	3.848400	-11.487000	22.160459	0.000450	20.787642
174.035918	-3.006100	3.848700	-11.568000	22.165923	0.000449	20.751386
175.036400	-2.982300	3.848700	-11.477000	22.183157	0.000451	20.756312
176.035677	-2.996500	3.847100	-11.527000	22.171268	0.000450	20.759109
177.037020	-3.005600	3.847900	-11.564000	22.164248	0.000450	20.758244
178.039128	-2.991300	3.848700	-11.512000	22.195773	0.000451	20.767522
179.037305	-3.005200	3.847100	-11.561000	22.205098	0.000450	20.769746
180.038559	-3.030100	3.846200	-11.653000	22.212348	0.000450	20.764677
181.040600	-3.008200	3.847200	-11.572000	22.211073	0.000450	20.739692
182.036579	-2.991900	3.847500	-11.510000	22.190905	0.000451	20.773553
183.038417	-2.996100	3.846800	-11.524000	22.231837	0.000452	20.755266
184.037924	-3.008500	3.848100	-11.576000	22.199307	0.000451	20.745455
185.038369	-2.997600	3.847400	-11.532000	22.253464	0.000454	20.767438
186.040571	-3.010900	3.845300	-11.577000	22.260616	0.000453	20.763693
187.037506	-2.995600	3.846000	-11.521000	22.250344	0.000456	20.762417
188.039386	-3.011400	3.846900	-11.584000	22.273210	0.000455	20.744060
189.039007	-3.020300	3.844300	-11.610000	22.298670	0.000452	20.761019
190.038871	-2.993900	3.845800	-11.512000	22.293656	0.000452	20.763111
191.036816	-3.014800	3.846000	-11.593000	22.304718	0.000454	20.773713
192.042175	-2.985000	3.844400	-11.475000	22.288969	0.000453	20.755573
193.041490	-3.010600	3.845900	-11.576000	22.323732	0.000455	20.738224
194.043158	-2.980600	3.844600	-11.458000	22.339783	0.000455	20.750029
195.040817	-2.993100	3.845400	-11.509000	22.361394	0.000456	20.764558
196.054958	-3.012300	3.843300	-11.576000	22.365450	0.000458	20.763404
197.043815	-2.987200	3.845000	-11.485000	22.372128	0.000455	20.767720
198.040798	-2.983200	3.845300	-11.470000	22.341555	0.000455	20.767926
199.042026	-2.997800	3.844000	-11.523000	22.343947	0.000456	20.752777
200.046613	-2.989300	3.842900	-11.486000	22.324958	0.000456	20.737080
201.044510	-3.003000	3.843900	-11.543000	22.342259	0.000456	20.741128
202.043826	-3.005600	3.842300	-11.548000	22.349542	0.000459	20.749371
203.046577	-3.003900	3.844100	-11.546000	22.345524	0.000458	20.742028
204.048127	-3.004800	3.842900	-11.547000	22.333272	0.000456	20.753467
205.046361	-3.008900	3.842700	-11.562000	22.352042	0.000458	20.769892
206.047984	-3.012900	3.841900	-11.574000	22.373169	0.000457	20.743157
207.050411	-3.012400	3.843800	-11.578000	22.363431	0.000457	20.713016
208.045201	-3.004600	3.842300	-11.543000	22.372198	0.000458	20.745978
209.046158	-3.009600	3.841300	-11.560000	22.414377	0.000460	20.750284
210.052086	-3.004400	3.841900	-11.541000	22.413489	0.000460	20.715254
211.050430	-3.015900	3.842200	-11.586000	22.423613	0.000460	20.739619
212.046456	-3.005300	3.842600	-11.547000	22.453031	0.000460	20.754855
213.047567	-2.999900	3.841400	-11.523000	22.463166	0.000461	20.738451
214.049447	-3.011800	3.840800	-11.567000	22.484412	0.000462	20.747401
215.047436	-3.017600	3.840200	-11.587000	22.495155	0.000458	20.738245
216.047371	-3.007200	3.840400	-11.548000	22.517359	0.000460	20.725393
217.049232	-3.022600	3.838600	-11.602000	22.511750	0.000462	20.743959
218.048204	-3.022200	3.839600	-11.602000	22.532812	0.000464	20.732335
219.050841	-2.992400	3.841700	-11.495000	22.525348	0.000462	20.741456
220.049231	-3.013500	3.839100	-11.568000	22.535544	0.000460	20.739814
221.049469	-3.006300	3.839700	-11.542000	22.505536	0.000461	20.733468
222.046819	-3.008500	3.838300	-11.547000	22.532425	0.000462	20.743328
223.047052	-3.002200	3.840300	-11.528000	22.531429	0.000463	20.739486
224.047506	-2.977200	3.840200	-11.433000	22.546652	0.000464	20.734817
225.050959	-3.001400	3.838900	-11.522000	22.556448	0.000463	20.732300
226.048645	-3.018600	3.838300	-11.585000	22.563682	0.000463	20.737175
227.048889	-3.012500	3.838000	-11.561000	22.557151	0.000463	20.744859
228.048291	-3.007400	3.838400	-11.543000	22.546725	0.000464	20.737262
229.050019	-3.018900	3.838800	-11.588000	22.544404	0.000464	20.715969
230.050187	-3.006900	3.837300	-11.537000	22.547986	0.000464	20.727618
231.052717	-2.999400	3.839500	-11.515000	22.550510	0.000465	20.723033
232.051604	-3.020300	3.837400	-11.588000	22.560365	0.000464	20.722472
233.052010	-3.014400	3.837600	-11.567000	22.588334	0.000465	20.737684
234.052106	-3.004600	3.837300	-11.529000	22.596212	0.000467	20.735142
235.051570	-3.005400	3.836800	-11.531000	22.596588	0.000466	20.716077
236.050604	-3.004800	3.835700	-11.524000	22.599052	0.000467	20.725184
237.051158	-3.014400	3.836100	-11.562000	22.632445	0.000467	20.723068
238.050398	-3.001800	3.836900	-11.517000	22.616857	0.000467	20.735906
239.055764	-2.997900	3.835000	-11.496000	22.614466	0.000471	20.718337
240.051009	-2.995600	3.836700	-11.492000	22.608458	0.000468	20.706628
241.054070	-3.010200	3.836300	-11.546000	22.611831	0.000469	20.725655
242.053074	-2.983200	3.836700	-11.444000	22.639010	0.000468	20.729170
243.052724	-2.982000	3.835800	-11.437000	22.628205	0.000468	20.711709
244.056127	-2.988600	3.834900	-11.460000	22.643159	0.000469	20.725265
245.054231	-2.987500	3.834700	-11.456000	22.630123	0.000467	20.710785
246.051151	-2.982900	3.835800	-11.441000	22.659581	0.000468	20.716109
247.057827	-2.989500	3.836000	-11.467000	22.656327	0.000470	20.720436
248.057385	-3.009800	3.836100	-11.544000	22.655028	0.000470	20.716290
249.053702	-2.990600	3.834300	-11.467000	22.659094	0.000471	20.709931
250.056015	-3.010600	3.834900	-11.544000	22.686209	0.000469	20.721444
251.053985	-3.025100	3.833700	-11.596000	22.685833	0.000472	20.722015
252.055726	-3.018300	3.832400	-11.567000	22.681548	0.000472	20.723414
253.054973	-3.006300	3.834800	-11.528000	22.675078	0.000473	20.710768
254.057569	-3.020600	3.833200	-11.577000	22.690675	0.000471	20.715959
255.056401	-3.001600	3.832500	-11.503000	22.704169	0.000472	20.710510
256.059326	-3.019300	3.831400	-11.567000	22.712349	0.000473	20.709694
257.056503	-2.997100	3.832300	-11.485000	22.743555	0.000473	20.722462
258.056386	-2.994800	3.832700	-11.477000	22.737158	0.000471	20.710838
259.059302	-2.997200	3.832000	-11.485000	22.730458	0.000473	20.709816
260.056359	-2.996800	3.831400	-11.481000	22.748345	0.000473	20.700231
261.060078	-3.008300	3.831900	-11.527000	22.749316	0.000473	20.711162
262.058953	-3.003600	3.830900	-11.506000	22.803578	0.000475	20.689178
263.059250	-2.992400	3.830500	-11.461000	22.799754	0.000474	20.699573
264.060649	-2.993100	3.830200	-11.463000	22.775941	0.000474	20.701797
265.058043	-3.013200	3.829900	-11.539000	22.786184	0.000477	20.710636
266.063131	-3.017600	3.830200	-11.557000	22.796914	0.000476	20.682027
267.059642	-3.022500	3.829900	-11.575000	22.815735	0.000477	20.681916
268.061687	-2.999200	3.829500	-11.484000	22.824036	0.000478	20.690706
269.059917	-2.991500	3.830200	-11.457000	22.843393	0.000476	20.712470
270.061814	-3.015300	3.829100	-11.545000	22.855177	0.000475	20.705783
271.061565	-2.995300	3.829000	-11.468000	22.892020	0.000478	20.701916
272.064238	-3.014200	3.828500	-11.539000	22.881921	0.000478	20.698911
