LabVIEW Measurement	
Writer_Version	2
Reader_Version	2
Separator	Tab
Decimal_Separator	.
Multi_Headings	No
X_Columns	One
Time_Pref	Absolute
Operator	admin
Description	Clolumns are: time, Current, Voltage, Power, Battery Temp, and Chamber Temp
Date	2024/08/16
Time	13:07:17.8513970375061035156
***End_of_Header***	
	
Channels	6						
Samples	1	1	1	1	1	1	
Date	2024/09/03	2024/09/03	2024/09/03	2024/09/03	2024/09/03	2024/09/03	
Time	18:42:33.9694423675537109375	18:42:33.9754114151000976563	18:42:33.9834094047546386719	18:42:33.952320098876953125	18:42:33.952320098876953125	18:42:33.952320098876953125	
X_Dimension	Time	Time	Time	Time	Time	Time	
X0	0.0000000000000000E+0	0.0000000000000000E+0	0.0000000000000000E+0	0.0000000000000000E+0	0.0000000000000000E+0	0.0000000000000000E+0	
Delta_X	1.000000	1.000000	1.000000	1.000000	1.000000	1.000000	
***End_of_Header***							
X_Value	Untitled	Untitled 1	Untitled 2	Untitled 3	Untitled 4	Untitled 5	Comment
0.000000	0.015838	4.088600	0.064933	20.867789	0.000469	20.760632
0.998574	-2.979000	3.924700	-11.690000	20.864792	0.000467	20.756686
1.999051	-2.979900	3.918700	-11.676000	20.873800	0.000466	20.777075
2.999058	-2.999800	3.914000	-11.740000	20.878814	0.000467	20.771658
3.997307	-2.985700	3.911900	-11.678000	20.882529	0.000466	20.748820
4.999172	-2.992300	3.909000	-11.696000	20.886220	0.000465	20.760098
6.000795	-2.984800	3.905400	-11.656000	20.902538	0.000464	20.756977
6.998374	-3.006800	3.903400	-11.736000	20.888637	0.000466	20.767257
8.000776	-3.005100	3.900700	-11.721000	20.907174	0.000465	20.763510
8.999804	-2.986100	3.900300	-11.645000	20.916875	0.000463	20.771316
10.001395	-3.009600	3.899100	-11.733000	20.931049	0.000462	20.741394
10.999782	-2.998000	3.896000	-11.680000	20.925508	0.000459	20.778054
12.000546	-2.995800	3.896500	-11.672000	20.958692	0.000462	20.778525
13.003343	-2.985700	3.894300	-11.626000	20.930215	0.000458	20.760475
14.002911	-2.986800	3.892700	-11.626000	20.952098	0.000460	20.754859
15.000629	-3.000900	3.892500	-11.680000	20.952915	0.000459	20.757574
16.001528	-3.016800	3.891600	-11.740000	20.959652	0.000457	20.759570
17.001842	-3.000800	3.891000	-11.675000	20.982581	0.000457	20.757847
18.001138	-2.996200	3.888800	-11.651000	20.969877	0.000457	20.763158
19.003618	-3.013300	3.888100	-11.714000	20.973638	0.000456	20.770240
20.002226	-3.011200	3.888300	-11.707000	21.001934	0.000455	20.762978
21.003613	-3.006800	3.887600	-11.689000	20.983644	0.000454	20.759857
22.006465	-3.005200	3.886800	-11.679000	21.021095	0.000454	20.758435
23.003628	-3.002900	3.885900	-11.668000	21.023561	0.000454	20.769911
24.007946	-2.999900	3.884200	-11.651000	21.003898	0.000451	20.755934
25.003716	-2.996800	3.884200	-11.639000	21.043769	0.000455	20.743655
26.002915	-3.029600	3.882400	-11.762000	21.053222	0.000454	20.762594
27.004526	-3.005500	3.883200	-11.670000	21.070539	0.000453	20.764741
28.004147	-3.007200	3.881700	-11.671000	21.066415	0.000453	20.744494
29.003590	-3.023700	3.881700	-11.736000	21.087948	0.000453	20.746593
30.008779	-2.996000	3.882400	-11.631000	21.075945	0.000453	20.752131
31.011785	-3.003200	3.881700	-11.656000	21.090315	0.000452	20.749909
32.004356	-2.995400	3.881500	-11.626000	21.084877	0.000451	20.745892
33.010503	-2.995400	3.880800	-11.623000	21.098671	0.000450	20.746887
34.005117	-2.999400	3.880200	-11.638000	21.101791	0.000451	20.757120
35.005974	-2.976900	3.880600	-11.551000	21.132726	0.000451	20.741597
36.004154	-2.985500	3.878100	-11.577000	21.135421	0.000449	20.768476
37.004529	-2.976900	3.880500	-11.551000	21.121371	0.000451	20.743041
38.008275	-2.989400	3.879000	-11.595000	21.148938	0.000449	20.752599
39.005895	-2.985000	3.879400	-11.580000	21.159593	0.000448	20.732435
40.006334	-2.982900	3.877700	-11.566000	21.163713	0.000449	20.763111
41.005985	-2.990900	3.877700	-11.595000	21.174011	0.000447	20.748281
42.006615	-2.989300	3.876400	-11.586000	21.165656	0.000448	20.734707
43.006348	-2.976700	3.877800	-11.542000	21.174188	0.000449	20.746087
44.007192	-2.972800	3.877400	-11.526000	21.193841	0.000449	20.767171
45.006431	-2.979200	3.876700	-11.549000	21.194969	0.000448	20.748858
46.008493	-2.995300	3.875800	-11.608000	21.218541	0.000447	20.750153
47.007098	-3.003500	3.875200	-11.638000	21.228569	0.000449	20.728416
48.009965	-3.000900	3.875100	-11.628000	21.219087	0.000449	20.740267
49.009776	-3.011500	3.874700	-11.667000	21.236627	0.000447	20.747857
50.010346	-2.997500	3.875200	-11.616000	21.249148	0.000448	20.788833
51.013231	-3.011800	3.873100	-11.664000	21.244232	0.000447	20.748827
52.015165	-3.011300	3.874500	-11.665000	21.268107	0.000446	20.735727
53.010289	-2.980100	3.874100	-11.543000	21.277459	0.000446	20.725167
54.010348	-2.988800	3.874200	-11.578000	21.284519	0.000449	20.745982
55.012180	-3.001000	3.873600	-11.624000	21.294475	0.000448	20.731760
56.014526	-3.002900	3.872700	-11.629000	21.304350	0.000446	20.737372
57.016084	-2.996800	3.872800	-11.605000	21.306321	0.000446	20.738869
58.013879	-2.996000	3.872800	-11.602000	21.307643	0.000447	20.747305
59.012917	-2.985300	3.873500	-11.563000	21.315353	0.000447	20.730362
60.017383	-3.006000	3.871100	-11.635000	21.326480	0.000447	20.735330
61.014940	-3.005600	3.870800	-11.633000	21.330169	0.000446	20.754669
62.017541	-3.008700	3.871300	-11.647000	21.350400	0.000447	20.737450
63.013031	-2.986800	3.872300	-11.565000	21.363921	0.000447	20.746236
64.014906	-3.016000	3.870000	-11.671000	21.356062	0.000446	20.723674
65.014400	-2.996200	3.871600	-11.599000	21.366913	0.000449	20.758239
66.014659	-3.022400	3.870900	-11.698000	21.381106	0.000449	20.731186
67.020021	-2.993600	3.870000	-11.585000	21.371429	0.000447	20.729091
68.019282	-2.997100	3.870200	-11.599000	21.404030	0.000447	20.752227
69.020191	-2.990800	3.871800	-11.579000	21.411535	0.000447	20.730337
70.015677	-2.999700	3.870400	-11.610000	21.438748	0.000448	20.748083
71.018631	-3.001500	3.870000	-11.615000	21.409069	0.000447	20.747311
72.019062	-2.978800	3.869200	-11.523000	21.414158	0.000445	20.736281
73.020614	-2.994500	3.869800	-11.588000	21.439074	0.000446	20.752202
74.018361	-2.994800	3.870200	-11.589000	21.448675	0.000448	20.738575
75.019834	-2.983700	3.868400	-11.542000	21.447706	0.000447	20.737605
76.020355	-3.006400	3.869000	-11.631000	21.461749	0.000447	20.748812
77.019015	-2.979600	3.869600	-11.528000	21.474392	0.000448	20.730167
78.022859	-2.998500	3.867700	-11.597000	21.456112	0.000448	20.751706
79.019582	-2.983200	3.867700	-11.537000	21.478536	0.000448	20.726253
80.020815	-2.987200	3.867700	-11.553000	21.516120	0.000448	20.750110
81.019911	-2.993400	3.866700	-11.573000	21.506569	0.000446	20.744346
82.018607	-2.995800	3.866700	-11.583000	21.507318	0.000448	20.732767
83.020281	-2.996600	3.865900	-11.584000	21.522355	0.000447	20.744969
84.022384	-3.006800	3.867200	-11.627000	21.546372	0.000449	20.732965
85.019823	-2.989700	3.867600	-11.562000	21.551439	0.000447	20.734242
86.020163	-2.995600	3.867200	-11.583000	21.547048	0.000448	20.729848
87.023410	-3.019000	3.866200	-11.671000	21.548921	0.000448	20.751164
88.020539	-3.001300	3.866100	-11.602000	21.563936	0.000448	20.714503
89.022191	-3.012900	3.867200	-11.651000	21.565233	0.000448	20.721018
90.020984	-2.994900	3.866100	-11.578000	21.562914	0.000448	20.741457
91.025587	-3.031200	3.865300	-11.716000	21.580474	0.000449	20.730105
92.021179	-3.017000	3.865500	-11.661000	21.585615	0.000448	20.731931
93.021846	-2.995900	3.865200	-11.579000	21.583794	0.000448	20.740066
94.022434	-2.988400	3.865900	-11.551000	21.600851	0.000449	20.760456
95.025477	-2.996600	3.865700	-11.582000	21.616215	0.000447	20.738845
96.022198	-3.001300	3.864200	-11.596000	21.612824	0.000450	20.726442
97.022381	-2.976400	3.865400	-11.504000	21.637915	0.000450	20.752500
98.021703	-2.980300	3.866000	-11.521000	21.640779	0.000449	20.755367
99.022159	-2.991900	3.864000	-11.560000	21.672050	0.000453	20.735926
100.025112	-3.021800	3.864600	-11.677000	21.668712	0.000448	20.759613
101.023527	-3.007300	3.864200	-11.620000	21.659914	0.000452	20.736583
102.022251	-2.992700	3.864700	-11.565000	21.674924	0.000452	20.738802
103.023215	-2.990500	3.863600	-11.553000	21.714849	0.000449	20.751258
104.023129	-3.002400	3.864200	-11.601000	21.700413	0.000453	20.723058
105.024968	-3.012700	3.863900	-11.640000	21.709418	0.000454	20.758625
106.021997	-2.986900	3.865300	-11.544000	21.700713	0.000453	20.751810
107.025689	-2.992500	3.863900	-11.561000	21.705575	0.000453	20.727276
108.027111	-2.998600	3.863700	-11.584000	21.720163	0.000455	20.760369
109.022528	-3.013400	3.863100	-11.641000	21.739612	0.000453	20.736685
110.026567	-3.003300	3.863600	-11.602000	21.752453	0.000453	20.739106
111.023796	-3.020100	3.862300	-11.664000	21.744848	0.000452	20.731968
112.024520	-3.008900	3.861200	-11.616000	21.751781	0.000454	20.737485
113.024770	-3.023400	3.861800	-11.675000	21.774122	0.000452	20.753681
114.025666	-3.029300	3.861400	-11.696000	21.772800	0.000455	20.735762
115.027027	-3.011500	3.860900	-11.625000	21.788681	0.000456	20.744071
116.027323	-2.998600	3.862300	-11.579000	21.782901	0.000453	20.749191
117.026489	-2.995000	3.861500	-11.564000	21.797460	0.000456	20.754280
118.028912	-2.988400	3.860600	-11.536000	21.802618	0.000456	20.748537
119.028736	-2.993700	3.860800	-11.557000	21.805018	0.000456	20.750939
120.027924	-2.989900	3.862300	-11.546000	21.829027	0.000456	20.744623
121.037247	-3.010800	3.860800	-11.623000	21.831841	0.000454	20.749336
122.029787	-3.005500	3.861300	-11.604000	21.847499	0.000457	20.756474
123.027579	-2.983500	3.860500	-11.517000	21.856499	0.000456	20.748413
124.030246	-2.973100	3.860800	-11.478000	21.847372	0.000455	20.751605
125.029678	-3.003700	3.861300	-11.598000	21.872729	0.000457	20.765133
126.032269	-2.988600	3.859700	-11.533000	21.875445	0.000456	20.778756
127.033714	-3.010300	3.859700	-11.618000	21.884746	0.000457	20.752978
128.029860	-2.979100	3.859800	-11.498000	21.894393	0.000458	20.772592
129.034245	-3.007300	3.860100	-11.608000	21.910347	0.000457	20.754422
130.038435	-3.029200	3.857800	-11.685000	21.898328	0.000458	20.777479
131.032223	-2.993300	3.860600	-11.555000	21.929245	0.000458	20.762907
132.035031	-2.999600	3.860100	-11.577000	21.938118	0.000458	20.762306
133.035715	-2.974400	3.860400	-11.481000	21.936997	0.000458	20.781099
134.033483	-2.995200	3.859800	-11.560000	21.935474	0.000456	20.750176
135.032994	-2.993300	3.859400	-11.551000	21.958932	0.000457	20.753269
136.032972	-2.998700	3.859500	-11.572000	21.969229	0.000459	20.760731
137.046440	-2.990000	3.859300	-11.538000	21.960105	0.000460	20.759659
138.031970	-2.981900	3.858300	-11.503000	21.977108	0.000461	20.770990
139.032847	-2.991600	3.858800	-11.542000	21.962272	0.000458	20.749974
140.035047	-2.983100	3.858200	-11.509000	21.984089	0.000459	20.768495
141.033956	-3.002200	3.857600	-11.580000	21.984464	0.000461	20.768870
142.038353	-3.015600	3.857100	-11.631000	22.009165	0.000459	20.766570
143.034470	-2.980100	3.858300	-11.497000	21.995033	0.000460	20.771864
144.040470	-2.988500	3.859100	-11.532000	21.985807	0.000462	20.746506
145.035865	-2.970800	3.858000	-11.460000	22.011534	0.000461	20.756613
146.035893	-3.003000	3.856700	-11.581000	22.030582	0.000460	20.772363
147.038227	-2.992700	3.857700	-11.544000	22.037984	0.000462	20.762702
148.038922	-2.984200	3.856500	-11.508000	22.061566	0.000462	20.787260
149.038177	-3.010500	3.857200	-11.611000	22.052741	0.000462	20.778424
150.036332	-3.005600	3.857300	-11.592000	22.079016	0.000460	20.781496
151.037435	-2.997200	3.857100	-11.559000	22.070343	0.000464	20.775183
152.036651	-2.990500	3.857100	-11.534000	22.089934	0.000462	20.761605
153.051835	-2.978400	3.856500	-11.485000	22.091854	0.000461	20.781545
154.037796	-2.971200	3.856500	-11.457000	22.089387	0.000463	20.765324
155.041018	-2.984000	3.856100	-11.505000	22.088641	0.000463	20.763629
156.042050	-3.023200	3.854700	-11.653000	22.124363	0.000464	20.781375
157.041680	-2.983000	3.856500	-11.502000	22.114717	0.000465	20.797797
158.040686	-3.001700	3.855400	-11.572000	22.119751	0.000466	20.776283
159.044645	-3.008900	3.854000	-11.596000	22.141335	0.000464	20.777030
160.039433	-2.992400	3.855100	-11.535000	22.137599	0.000463	20.775660
161.042226	-2.982200	3.855300	-11.496000	22.151757	0.000464	20.786516
162.038671	-2.990300	3.855600	-11.528000	22.153281	0.000463	20.776661
163.041149	-2.999000	3.853700	-11.555000	22.158564	0.000463	20.785745
164.039540	-2.982400	3.855100	-11.496000	22.170429	0.000466	20.783399
165.042324	-2.997100	3.853700	-11.549000	22.196104	0.000466	20.785872
166.043541	-2.970300	3.853700	-11.445000	22.181699	0.000466	20.783777
167.040453	-2.988900	3.853700	-11.517000	22.203264	0.000466	20.777393
168.043173	-2.997400	3.852400	-11.547000	22.192220	0.000468	20.768232
169.040583	-3.001400	3.852800	-11.564000	22.235216	0.000468	20.775245
170.041827	-3.010700	3.851500	-11.595000	22.225822	0.000467	20.789073
171.046517	-2.998800	3.851700	-11.550000	22.221808	0.000469	20.792640
172.042605	-2.966700	3.852900	-11.429000	22.227391	0.000470	20.787800
173.041262	-2.996700	3.851800	-11.541000	22.229137	0.000470	20.790970
174.042335	-2.989100	3.852600	-11.514000	22.252864	0.000470	20.791968
175.044697	-2.998700	3.851100	-11.548000	22.263283	0.000472	20.777743
176.041391	-2.999600	3.851200	-11.550000	22.261812	0.000472	20.797134
177.043415	-2.997100	3.850900	-11.540000	22.283447	0.000471	20.772329
178.042337	-2.988100	3.851700	-11.508000	22.294310	0.000471	20.766137
179.043821	-2.996700	3.851800	-11.542000	22.296576	0.000473	20.797803
180.043907	-3.015700	3.851200	-11.613000	22.296031	0.000472	20.803422
181.043688	-3.028700	3.849400	-11.658000	22.293636	0.000472	20.793911
182.047873	-3.009100	3.851900	-11.590000	22.295356	0.000472	20.778564
183.043502	-2.983300	3.850900	-11.488000	22.314223	0.000474	20.791292
184.048626	-3.005000	3.850900	-11.571000	22.316387	0.000475	20.804838
185.046564	-3.004700	3.850800	-11.570000	22.321048	0.000474	20.800970
186.044523	-3.008300	3.850600	-11.583000	22.333709	0.000474	20.778087
187.045150	-3.004000	3.850900	-11.567000	22.341208	0.000476	20.791760
188.047174	-2.992300	3.849600	-11.518000	22.341105	0.000473	20.813943
189.048100	-3.001200	3.849500	-11.552000	22.361191	0.000474	20.785692
190.047548	-2.976700	3.850700	-11.461000	22.381774	0.000475	20.813416
191.049310	-3.003900	3.849100	-11.562000	22.365626	0.000476	20.787762
192.054022	-2.973300	3.849700	-11.445000	22.392788	0.000476	20.805005
193.049257	-3.010900	3.848500	-11.587000	22.399117	0.000476	20.804704
194.050911	-3.005900	3.848100	-11.565000	22.369708	0.000475	20.804652
195.053731	-3.003900	3.846900	-11.554000	22.396223	0.000475	20.807971
196.050651	-3.027700	3.846600	-11.645000	22.407064	0.000475	20.808395
197.052696	-3.001200	3.846900	-11.544000	22.393454	0.000477	20.802826
198.054012	-3.005300	3.847600	-11.563000	22.422163	0.000474	20.800756
199.053019	-3.003600	3.848000	-11.557000	22.425972	0.000476	20.809786
200.055782	-2.994900	3.847200	-11.521000	22.421436	0.000479	20.813778
201.053992	-2.988400	3.847500	-11.496000	22.425802	0.000475	20.814358
202.054000	-2.992300	3.846300	-11.508000	22.439979	0.000477	20.797260
203.054366	-2.990400	3.845500	-11.499000	22.460561	0.000478	20.807915
204.055774	-3.006200	3.846300	-11.562000	22.476457	0.000479	20.811032
205.057803	-3.019200	3.845500	-11.609000	22.478899	0.000478	20.807313
206.054561	-3.001400	3.845200	-11.540000	22.509178	0.000478	20.821042
207.054858	-3.016800	3.845100	-11.598000	22.509676	0.000479	20.813480
208.060377	-3.001200	3.845400	-11.540000	22.485403	0.000478	20.798180
209.054719	-2.982000	3.844500	-11.463000	22.516029	0.000480	20.810834
210.056167	-2.991600	3.845400	-11.503000	22.506860	0.000480	20.841480
211.059388	-3.006800	3.844000	-11.557000	22.512514	0.000479	20.803520
212.056787	-3.013200	3.845300	-11.586000	22.519294	0.000479	20.824534
213.054983	-2.994800	3.843900	-11.511000	22.532203	0.000480	20.801903
214.060977	-2.984400	3.843800	-11.471000	22.532504	0.000481	20.826859
215.056120	-3.011800	3.844700	-11.579000	22.572621	0.000480	20.831002
216.056814	-3.003700	3.843700	-11.544000	22.564923	0.000484	20.822344
217.060805	-2.989800	3.844000	-11.492000	22.588145	0.000482	20.821420
218.056809	-3.007000	3.843100	-11.556000	22.575688	0.000481	20.805625
219.057916	-3.025800	3.841700	-11.624000	22.588745	0.000482	20.823918
220.069616	-3.002100	3.843100	-11.536000	22.585410	0.000483	20.838121
221.058626	-2.989000	3.843500	-11.487000	22.591737	0.000484	20.821699
222.059928	-2.998800	3.842200	-11.521000	22.571207	0.000483	20.806353
223.062876	-2.991800	3.841400	-11.492000	22.575719	0.000484	20.833156
224.059001	-2.973100	3.842400	-11.423000	22.608137	0.000483	20.847132
225.058828	-2.985900	3.842700	-11.473000	22.605695	0.000487	20.844687
226.061626	-3.003700	3.842200	-11.541000	22.631934	0.000485	20.831139
227.060257	-2.989500	3.843200	-11.487000	22.610058	0.000485	20.817290
228.059134	-2.987200	3.841300	-11.473000	22.645817	0.000486	20.826553
229.058883	-2.978900	3.842300	-11.444000	22.649505	0.000485	20.815074
230.062893	-2.998000	3.842400	-11.519000	22.653666	0.000485	20.857647
231.058945	-3.001900	3.840700	-11.529000	22.678480	0.000487	20.825604
232.063871	-3.003200	3.840500	-11.533000	22.679359	0.000487	20.817002
233.059861	-3.011800	3.841000	-11.567000	22.703003	0.000487	20.822193
234.059196	-3.004300	3.841200	-11.539000	22.693811	0.000485	20.842383
235.064541	-2.986800	3.842100	-11.475000	22.741196	0.000488	20.828208
236.062069	-3.008200	3.840300	-11.552000	22.709559	0.000490	20.844880
237.060321	-3.002000	3.839300	-11.524000	22.751514	0.000490	20.849922
238.060331	-2.993700	3.840000	-11.495000	22.728521	0.000489	20.842064
239.059485	-3.000700	3.839900	-11.521000	22.741524	0.000491	20.835649
240.061238	-3.004400	3.839900	-11.535000	22.734081	0.000490	20.833409
241.061758	-3.012800	3.838700	-11.564000	22.743548	0.000491	20.837202
242.062942	-2.990800	3.839600	-11.482000	22.740807	0.000491	20.824499
243.065546	-3.000300	3.839600	-11.518000	22.742103	0.000494	20.831961
244.060873	-2.995700	3.838700	-11.499000	22.744470	0.000493	20.843815
245.063293	-3.006600	3.838400	-11.539000	22.769507	0.000493	20.837127
246.060795	-2.988800	3.839300	-11.474000	22.788667	0.000492	20.840198
247.062370	-2.989500	3.838800	-11.475000	22.797010	0.000492	20.843815
248.060744	-2.999800	3.837900	-11.512000	22.799030	0.000492	20.842994
249.061533	-2.967800	3.839100	-11.392000	22.783259	0.000492	20.839523
250.062160	-2.994600	3.837300	-11.490000	22.808620	0.000495	20.836006
251.062058	-2.997000	3.836300	-11.496000	22.805035	0.000493	20.846638
252.061235	-3.009300	3.836200	-11.543000	22.827881	0.000496	20.860515
253.062168	-3.002700	3.836300	-11.519000	22.845690	0.000495	20.833787
254.062285	-2.980500	3.838300	-11.438000	22.817020	0.000494	20.866703
255.061385	-2.996700	3.836800	-11.496000	22.825242	0.000494	20.836536
256.062180	-3.017500	3.835000	-11.571000	22.836655	0.000497	20.835166
257.062729	-2.997500	3.836100	-11.499000	22.840865	0.000495	20.862616
258.063261	-3.002700	3.836100	-11.516000	22.829351	0.000497	20.869099
259.063127	-3.015500	3.836300	-11.567000	22.861665	0.000498	20.855954
260.064623	-2.988500	3.835800	-11.462000	22.846968	0.000497	20.852610
261.068022	-3.004300	3.834900	-11.519000	22.852351	0.000496	20.855632
262.066607	-3.010500	3.834700	-11.544000	22.862241	0.000498	20.859849
263.064748	-3.030500	3.833900	-11.618000	22.854093	0.000499	20.840781
264.068116	-3.019900	3.834600	-11.579000	22.885680	0.000498	20.849192
265.065611	-2.989500	3.835800	-11.467000	22.890239	0.000499	20.859924
266.065151	-3.019200	3.834200	-11.576000	22.928748	0.000501	20.844451
267.068038	-2.998700	3.833100	-11.493000	22.932135	0.000501	20.867283
268.067340	-2.999800	3.834600	-11.502000	22.936942	0.000500	20.859297
269.066667	-2.990100	3.832900	-11.459000	22.930938	0.000504	20.868929
270.073027	-2.992700	3.833600	-11.472000	22.928370	0.000502	20.859719
271.068275	-3.000000	3.833700	-11.498000	22.952683	0.000505	20.867007
272.066257	-3.006700	3.831900	-11.521000	22.948572	0.000505	20.862889
