LabVIEW Measurement	
Writer_Version	2
Reader_Version	2
Separator	Tab
Decimal_Separator	.
Multi_Headings	No
X_Columns	One
Time_Pref	Absolute
Operator	admin
Description	Clolumns are: time, Current, Voltage, Power, Battery Temp, and Chamber Temp
Date	2024/08/16
Time	13:07:17.8513970375061035156
***End_of_Header***	
	
Channels	6						
Samples	1	1	1	1	1	1	
Date	2024/09/16	2024/09/16	2024/09/16	2024/09/16	2024/09/16	2024/09/16	
Time	23:16:56.2481846809387207031	23:16:56.255191802978515625	23:16:56.2611865997314453125	23:16:56.2316937446594238281	23:16:56.2316937446594238281	23:16:56.2316937446594238281	
X_Dimension	Time	Time	Time	Time	Time	Time	
X0	0.0000000000000000E+0	0.0000000000000000E+0	0.0000000000000000E+0	0.0000000000000000E+0	0.0000000000000000E+0	0.0000000000000000E+0	
Delta_X	1.000000	1.000000	1.000000	1.000000	1.000000	1.000000	
***End_of_Header***							
X_Value	Untitled	Untitled 1	Untitled 2	Untitled 3	Untitled 4	Untitled 5	Comment
0.000000	0.016774	4.091900	0.068642	20.799743	0.000465	20.782674
1.000329	-2.987300	3.917900	-11.703000	20.799343	0.000465	20.754297
2.004750	-3.005900	3.911500	-11.756000	20.788168	0.000465	20.757348
3.000198	-3.007800	3.908200	-11.754000	20.796889	0.000462	20.752792
4.002160	-3.012200	3.904200	-11.760000	20.805653	0.000460	20.765350
4.999930	-3.014700	3.901200	-11.760000	20.808816	0.000461	20.780366
5.999855	-2.998600	3.898400	-11.689000	20.825386	0.000460	20.763746
7.001370	-3.024100	3.895100	-11.778000	20.849787	0.000462	20.775346
8.001191	-3.008800	3.894500	-11.716000	20.834395	0.000459	20.761850
9.002801	-3.031900	3.890500	-11.794000	20.854504	0.000460	20.759200
10.009049	-3.019000	3.890000	-11.743000	20.863864	0.000459	20.778519
11.003148	-2.997500	3.888700	-11.656000	20.863635	0.000458	20.782556
12.002313	-3.019700	3.887300	-11.738000	20.851855	0.000456	20.762241
13.001570	-3.001700	3.887000	-11.666000	20.860438	0.000456	20.774144
14.009048	-3.008800	3.884700	-11.687000	20.880121	0.000458	20.772491
15.001793	-3.002600	3.882800	-11.657000	20.863903	0.000456	20.789937
16.006146	-2.994500	3.882400	-11.625000	20.899633	0.000455	20.762133
17.006642	-2.986400	3.882400	-11.594000	20.898612	0.000455	20.774388
18.007599	-2.987900	3.882100	-11.598000	20.912278	0.000456	20.772408
19.007153	-3.011100	3.878600	-11.678000	20.928153	0.000455	20.760309
20.008096	-3.006000	3.879100	-11.659000	20.933989	0.000455	20.775155
21.002832	-2.996000	3.877900	-11.617000	20.965059	0.000451	20.765452
22.010091	-3.031400	3.877000	-11.752000	20.950753	0.000455	20.792870
23.008040	-3.008300	3.877100	-11.663000	20.980230	0.000453	20.763081
24.007932	-3.018200	3.876200	-11.699000	20.963588	0.000453	20.782473
25.007038	-3.007600	3.875200	-11.654000	20.990210	0.000454	20.777331
26.008603	-3.032700	3.872800	-11.744000	20.997443	0.000450	20.771289
27.012051	-3.016100	3.873800	-11.682000	20.999168	0.000451	20.772066
28.010881	-3.004800	3.873100	-11.637000	21.010717	0.000452	20.786462
29.013356	-3.003200	3.872000	-11.627000	20.984301	0.000449	20.774266
30.006231	-3.009400	3.872200	-11.652000	21.017486	0.000450	20.786120
31.009425	-3.007300	3.872100	-11.644000	21.048969	0.000449	20.779677
32.006536	-3.000100	3.872500	-11.616000	21.038647	0.000449	20.770776
33.009103	-3.002000	3.871800	-11.623000	21.047278	0.000449	20.803590
34.009273	-3.007900	3.869900	-11.638000	21.055361	0.000449	20.805037
35.006803	-2.998900	3.870400	-11.606000	21.061778	0.000447	20.784428
36.013056	-3.003400	3.871300	-11.626000	21.077480	0.000446	20.762202
37.007695	-3.008400	3.870500	-11.643000	21.083399	0.000447	20.778079
38.009172	-3.007000	3.868900	-11.633000	21.099310	0.000447	20.781193
39.011024	-2.991300	3.869900	-11.575000	21.080906	0.000447	20.787440
40.007203	-3.034700	3.867100	-11.735000	21.133948	0.000448	20.785020
41.008495	-3.008700	3.868200	-11.637000	21.110286	0.000447	20.788378
42.015699	-2.978200	3.868600	-11.521000	21.148047	0.000446	20.783476
43.010521	-2.989700	3.868300	-11.564000	21.146053	0.000447	20.781007
44.009364	-3.004200	3.868000	-11.619000	21.162218	0.000447	20.800022
45.014906	-2.993900	3.867700	-11.579000	21.161246	0.000448	20.799049
46.010242	-2.976800	3.867000	-11.510000	21.172803	0.000446	20.788799
47.016577	-2.997700	3.866700	-11.590000	21.176668	0.000444	20.794088
48.015333	-3.001200	3.866000	-11.601000	21.195867	0.000446	20.789112
49.010753	-2.977600	3.866300	-11.511000	21.212315	0.000447	20.806040
50.015733	-3.006900	3.864800	-11.620000	21.214915	0.000446	20.812907
51.014131	-3.010300	3.865200	-11.634000	21.227214	0.000447	20.805771
52.015874	-3.013300	3.866000	-11.648000	21.245723	0.000446	20.797260
53.011262	-3.023800	3.864800	-11.685000	21.237348	0.000447	20.812116
54.013843	-2.986100	3.865700	-11.542000	21.236390	0.000447	20.809261
55.015609	-2.988600	3.865100	-11.550000	21.246632	0.000444	20.795325
56.014971	-3.009800	3.864500	-11.630000	21.281695	0.000446	20.799582
57.014175	-3.000400	3.865000	-11.594000	21.283493	0.000446	20.816080
58.015038	-2.991400	3.864400	-11.559000	21.282726	0.000445	20.801562
59.013449	-2.984000	3.863700	-11.528000	21.277914	0.000446	20.816188
60.018908	-3.004300	3.862500	-11.602000	21.300834	0.000445	20.807824
61.017200	-3.006400	3.863200	-11.614000	21.315429	0.000447	20.795872
62.029547	-3.013300	3.863900	-11.642000	21.329149	0.000443	20.817659
63.014644	-2.996400	3.863800	-11.577000	21.342116	0.000444	20.810244
64.016135	-3.000300	3.863000	-11.590000	21.352796	0.000443	20.817610
65.018082	-3.010600	3.861300	-11.624000	21.359553	0.000444	20.805404
66.022062	-3.006600	3.861400	-11.609000	21.347486	0.000445	20.815616
67.019337	-2.996700	3.860700	-11.568000	21.361899	0.000444	20.831458
68.020898	-3.010800	3.861700	-11.626000	21.379580	0.000447	20.810742
69.020128	-3.008000	3.861600	-11.615000	21.402875	0.000445	20.795643
70.021579	-2.985400	3.861700	-11.528000	21.386967	0.000444	20.802960
71.027033	-3.010000	3.861400	-11.621000	21.413252	0.000445	20.809818
72.026737	-3.014600	3.859500	-11.634000	21.400711	0.000446	20.796796
73.022187	-2.994600	3.861700	-11.563000	21.431187	0.000446	20.798839
74.021478	-3.007600	3.859300	-11.606000	21.414552	0.000446	20.792627
75.024076	-2.978500	3.861200	-11.499000	21.424880	0.000446	20.775459
76.023726	-3.026000	3.859500	-11.678000	21.428344	0.000446	20.778925
77.021361	-3.015500	3.859000	-11.637000	21.417600	0.000446	20.776236
78.023104	-3.016200	3.860300	-11.643000	21.431768	0.000446	20.786145
79.019668	-2.994800	3.859600	-11.558000	21.456498	0.000445	20.804251
80.022447	-3.034800	3.858400	-11.709000	21.496363	0.000445	20.801465
81.021312	-3.017400	3.859300	-11.643000	21.494687	0.000448	20.797891
82.023403	-2.995400	3.859400	-11.559000	21.496534	0.000447	20.776505
83.024583	-2.979900	3.861000	-11.504000	21.518585	0.000444	20.777234
84.026118	-2.987600	3.860800	-11.534000	21.523031	0.000447	20.780260
85.027618	-3.019400	3.858400	-11.650000	21.525425	0.000448	20.772223
86.029276	-2.993600	3.857700	-11.547000	21.520369	0.000448	20.793717
87.031130	-3.003800	3.858300	-11.588000	21.538497	0.000449	20.786253
88.026799	-2.993700	3.858700	-11.550000	21.521693	0.000448	20.778920
89.029586	-3.018700	3.856800	-11.642000	21.548956	0.000448	20.756415
90.034226	-3.000800	3.858300	-11.577000	21.551692	0.000446	20.761997
91.029048	-2.990600	3.857200	-11.534000	21.571930	0.000449	20.773240
92.030509	-2.987200	3.857400	-11.522000	21.571276	0.000447	20.791552
93.031257	-2.993600	3.857000	-11.545000	21.587835	0.000449	20.793424
94.030279	-3.009600	3.856000	-11.604000	21.594845	0.000448	20.781946
95.033268	-3.014300	3.856800	-11.624000	21.608317	0.000448	20.771246
96.030173	-3.014100	3.856400	-11.622000	21.628740	0.000447	20.785520
97.029130	-3.012600	3.856200	-11.615000	21.632458	0.000447	20.760316
98.033951	-3.013100	3.855800	-11.617000	21.627988	0.000449	20.759636
99.033270	-3.000600	3.856000	-11.569000	21.635847	0.000447	20.776511
100.036112	-2.999500	3.854700	-11.562000	21.650936	0.000449	20.772170
101.033604	-2.989900	3.856400	-11.529000	21.651517	0.000450	20.765639
102.032791	-3.000300	3.856200	-11.569000	21.669243	0.000449	20.757300
103.034794	-3.008400	3.854800	-11.596000	21.683614	0.000448	20.756982
104.032751	-2.997000	3.855800	-11.555000	21.695116	0.000450	20.755218
105.036148	-2.998300	3.854300	-11.556000	21.712031	0.000448	20.772146
106.035811	-3.006400	3.854800	-11.588000	21.720022	0.000450	20.761651
107.034962	-3.005400	3.855300	-11.585000	21.718200	0.000448	20.784484
108.033473	-3.003100	3.854500	-11.575000	21.727993	0.000449	20.783379
109.034742	-3.017500	3.854600	-11.631000	21.748316	0.000448	20.773847
110.034243	-3.013500	3.855000	-11.615000	21.747876	0.000451	20.763450
111.037166	-3.007100	3.853600	-11.587000	21.759940	0.000450	20.741383
112.033526	-2.996800	3.855200	-11.551000	21.753088	0.000450	20.766294
113.034831	-3.025000	3.854100	-11.658000	21.751134	0.000451	20.755330
114.037182	-3.001500	3.854600	-11.568000	21.752712	0.000450	20.753590
115.036865	-3.030600	3.852400	-11.675000	21.776751	0.000451	20.756787
116.037953	-2.994100	3.853600	-11.538000	21.796956	0.000450	20.753301
117.033739	-3.004200	3.854400	-11.579000	21.811544	0.000452	20.749410
118.036250	-3.011000	3.853000	-11.600000	21.827505	0.000450	20.774868
119.038023	-2.993600	3.852500	-11.531000	21.804839	0.000454	20.741750
120.035728	-2.992900	3.854200	-11.534000	21.825102	0.000452	20.734529
121.036952	-2.989200	3.853800	-11.519000	21.822479	0.000452	20.758458
122.036383	-3.003300	3.853600	-11.572000	21.813307	0.000452	20.743588
123.038576	-2.990500	3.853400	-11.522000	21.820037	0.000450	20.746530
124.033896	-3.011800	3.853200	-11.604000	21.848011	0.000454	20.747029
125.034672	-2.997800	3.854100	-11.552000	21.857451	0.000452	20.756004
126.037789	-3.011700	3.851900	-11.600000	21.848221	0.000452	20.738704
127.041421	-2.987600	3.851300	-11.505000	21.876024	0.000455	20.742825
128.035459	-3.006000	3.850900	-11.575000	21.871785	0.000451	20.736685
129.038800	-2.986300	3.852200	-11.502000	21.910399	0.000451	20.754000
130.041713	-3.000200	3.850100	-11.551000	21.897003	0.000452	20.745806
131.036541	-3.022900	3.851000	-11.640000	21.901242	0.000452	20.746730
132.039970	-3.017000	3.850900	-11.618000	21.927090	0.000453	20.754586
133.037728	-3.012700	3.850400	-11.599000	21.928414	0.000454	20.738840
134.038763	-2.994800	3.850900	-11.531000	21.942116	0.000456	20.763937
135.036798	-2.993900	3.851000	-11.528000	21.929776	0.000453	20.739256
136.036127	-3.017400	3.848600	-11.612000	21.929146	0.000453	20.751902
137.037879	-3.007800	3.849800	-11.579000	21.956693	0.000455	20.728741
138.053049	-3.005200	3.849400	-11.568000	21.974609	0.000454	20.729606
139.038735	-3.026800	3.848900	-11.649000	21.970297	0.000453	20.736670
140.038348	-3.002400	3.849300	-11.556000	21.991856	0.000454	20.744027
141.041009	-3.019900	3.848000	-11.620000	22.004474	0.000455	20.728682
142.041510	-3.028500	3.850100	-11.659000	21.989478	0.000455	20.758242
143.042706	-3.003100	3.849200	-11.558000	22.008874	0.000452	20.768175
144.040310	-3.009500	3.848700	-11.582000	22.023230	0.000455	20.737026
145.042086	-3.018300	3.847800	-11.613000	22.038689	0.000455	20.752029
146.050006	-3.031200	3.846900	-11.660000	22.057722	0.000456	20.754962
147.039414	-2.988900	3.849300	-11.504000	22.037795	0.000455	20.739279
148.041440	-2.983900	3.849100	-11.484000	22.046926	0.000456	20.730402
149.042756	-3.012300	3.847900	-11.589000	22.034831	0.000453	20.725406
150.044151	-3.010100	3.848400	-11.583000	22.037346	0.000455	20.747839
151.045129	-3.011500	3.847500	-11.586000	22.039558	0.000458	20.754321
152.042050	-3.001200	3.846800	-11.543000	22.077800	0.000458	20.738077
153.043728	-3.023000	3.846800	-11.627000	22.064343	0.000458	20.753529
154.048142	-2.995400	3.848100	-11.525000	22.077024	0.000459	20.736825
155.041824	-3.005000	3.845900	-11.557000	22.102819	0.000459	20.752693
156.045614	-3.003700	3.845400	-11.549000	22.101984	0.000459	20.727200
157.045444	-2.997800	3.846000	-11.529000	22.098229	0.000463	20.728657
158.044835	-3.009100	3.846000	-11.572000	22.126245	0.000459	20.732998
159.049030	-3.005900	3.847000	-11.563000	22.142631	0.000460	20.719055
160.044235	-3.029600	3.845700	-11.650000	22.169298	0.000461	20.744334
161.044987	-3.016000	3.846000	-11.598000	22.181758	0.000460	20.734522
162.042497	-2.999700	3.846200	-11.536000	22.159607	0.000463	20.718508
163.043814	-2.997800	3.846200	-11.529000	22.195043	0.000460	20.737392
164.052808	-3.001300	3.844900	-11.540000	22.200652	0.000462	20.722619
165.053633	-2.982400	3.846000	-11.469000	22.176900	0.000462	20.728710
166.047940	-3.002800	3.844100	-11.542000	22.213781	0.000463	20.711581
167.047692	-2.994900	3.844300	-11.513000	22.223847	0.000463	20.729722
168.051748	-2.977300	3.843700	-11.443000	22.227187	0.000462	20.713624
169.046838	-2.972100	3.845200	-11.427000	22.224311	0.000463	20.734454
170.048625	-3.003800	3.843300	-11.544000	22.229179	0.000465	20.736957
171.046613	-3.001500	3.843500	-11.536000	22.255883	0.000464	20.743307
172.045327	-3.018600	3.842100	-11.597000	22.252275	0.000465	20.724995
173.049981	-2.992700	3.844800	-11.505000	22.221650	0.000466	20.706658
174.048631	-3.015100	3.843100	-11.586000	22.245963	0.000465	20.726261
175.050076	-3.004000	3.843800	-11.546000	22.242599	0.000467	20.728108
176.058547	-3.022800	3.841900	-11.612000	22.253833	0.000465	20.722760
177.048378	-3.013000	3.841800	-11.574000	22.251670	0.000467	20.725811
178.045791	-3.022800	3.842200	-11.613000	22.267238	0.000467	20.730968
179.046578	-2.999500	3.842800	-11.525000	22.262391	0.000467	20.712837
180.046706	-3.007000	3.842300	-11.553000	22.299561	0.000467	20.742471
181.049725	-2.989200	3.842900	-11.485000	22.312176	0.000467	20.719065
182.047393	-3.010200	3.841100	-11.562000	22.313147	0.000466	20.739005
183.049937	-3.019200	3.841500	-11.598000	22.325713	0.000468	20.718869
184.048051	-2.997800	3.841200	-11.514000	22.328227	0.000469	20.720912
185.050070	-2.983700	3.841400	-11.460000	22.308778	0.000469	20.721827
186.053462	-2.984600	3.842800	-11.468000	22.351297	0.000469	20.733583
187.051734	-2.996900	3.839700	-11.506000	22.370091	0.000471	20.735333
188.055096	-3.012100	3.841700	-11.571000	22.364726	0.000471	20.708623
189.049452	-3.019300	3.839400	-11.591000	22.371209	0.000470	20.697095
190.048472	-3.013700	3.839400	-11.569000	22.381821	0.000468	20.708197
191.056102	-2.999100	3.839600	-11.514000	22.403929	0.000468	20.711370
192.052860	-2.951600	3.841600	-11.338000	22.409357	0.000472	20.713487
193.051282	-2.985600	3.839600	-11.463000	22.430932	0.000470	20.717075
194.051567	-2.992800	3.840900	-11.494000	22.414165	0.000470	20.726363
195.053224	-2.999200	3.840400	-11.517000	22.429741	0.000471	20.703079
196.051783	-2.947300	3.841300	-11.321000	22.408171	0.000471	20.732689
197.052628	-2.997700	3.838900	-11.506000	22.425421	0.000473	20.695907
198.049252	-2.978100	3.839900	-11.435000	22.440875	0.000472	20.725610
199.048498	-3.008900	3.839100	-11.550000	22.449725	0.000472	20.702228
200.051969	-2.987500	3.840400	-11.472000	22.468932	0.000473	20.706291
201.049160	-2.992700	3.838700	-11.487000	22.466613	0.000474	20.728626
202.060218	-2.983800	3.838700	-11.453000	22.469732	0.000474	20.705196
203.050983	-2.973500	3.838900	-11.414000	22.465022	0.000473	20.709962
204.053440	-2.989400	3.839200	-11.475000	22.487943	0.000473	20.705890
205.059074	-3.008300	3.838200	-11.545000	22.467609	0.000474	20.731520
206.054841	-2.997000	3.836400	-11.497000	22.468834	0.000474	20.713306
207.057068	-2.994800	3.836700	-11.488000	22.451887	0.000474	20.706291
208.052575	-3.003100	3.836300	-11.520000	22.491306	0.000475	20.714948
209.049634	-2.992500	3.836500	-11.481000	22.488114	0.000475	20.719338
210.050786	-3.014800	3.836800	-11.566000	22.494659	0.000474	20.709771
211.051322	-2.994800	3.836400	-11.488000	22.475975	0.000475	20.706706
212.052685	-2.997400	3.837800	-11.502000	22.495313	0.000474	20.690510
213.056611	-3.025000	3.836300	-11.604000	22.495860	0.000479	20.700067
214.055142	-2.996100	3.836700	-11.494000	22.519776	0.000475	20.693673
215.057341	-3.010700	3.837000	-11.551000	22.528952	0.000475	20.696699
216.055775	-2.993500	3.836400	-11.483000	22.540729	0.000476	20.710392
217.053479	-3.010600	3.835900	-11.548000	22.545269	0.000477	20.699290
218.056567	-2.997200	3.835600	-11.495000	22.554498	0.000477	20.698102
219.054735	-3.003100	3.834900	-11.516000	22.579223	0.000479	20.701529
220.054708	-2.987800	3.835500	-11.459000	22.587213	0.000478	20.688667
221.057520	-3.020300	3.834500	-11.579000	22.590648	0.000478	20.703015
222.058339	-3.004200	3.834500	-11.519000	22.620971	0.000478	20.697349
223.054753	-3.015400	3.833500	-11.558000	22.629931	0.000478	20.724818
224.056687	-3.002900	3.833900	-11.512000	22.623230	0.000478	20.716683
225.057076	-3.010900	3.833700	-11.542000	22.656246	0.000479	20.697119
226.057595	-2.985000	3.834900	-11.446000	22.648515	0.000479	20.694592
227.054093	-2.995800	3.834300	-11.486000	22.642288	0.000480	20.693570
228.056051	-3.012100	3.833600	-11.546000	22.698293	0.000479	20.696088
229.059347	-3.000600	3.833400	-11.502000	22.673434	0.000480	20.688730
230.071729	-2.999300	3.833900	-11.498000	22.692915	0.000482	20.694020
231.057641	-2.989500	3.832800	-11.458000	22.667680	0.000478	20.679173
232.060159	-3.002100	3.832000	-11.504000	22.675654	0.000480	20.696171
233.058431	-2.982800	3.832300	-11.430000	22.680476	0.000481	20.702423
234.060571	-2.983700	3.831300	-11.431000	22.697468	0.000483	20.681510
235.059145	-2.998700	3.831700	-11.489000	22.696434	0.000481	20.672412
236.058305	-3.004900	3.831100	-11.512000	22.720965	0.000480	20.681339
237.062196	-2.993800	3.831300	-11.470000	22.738919	0.000482	20.699324
238.063069	-3.001800	3.831900	-11.502000	22.712289	0.000482	20.666482
239.063667	-3.006300	3.831900	-11.518000	22.718198	0.000483	20.683783
240.064563	-2.998800	3.831200	-11.488000	22.706984	0.000482	20.692939
241.058873	-3.002500	3.830300	-11.500000	22.743857	0.000481	20.692416
242.057984	-2.999100	3.830700	-11.488000	22.751299	0.000481	20.685171
243.062425	-3.018400	3.829300	-11.557000	22.734234	0.000484	20.676611
244.060004	-2.997200	3.828400	-11.474000	22.720287	0.000484	20.692040
245.071669	-3.021300	3.830300	-11.571000	22.726284	0.000484	20.679554
246.064535	-2.995700	3.829400	-11.471000	22.737825	0.000484	20.697281
247.060650	-3.000400	3.829000	-11.488000	22.766748	0.000484	20.686423
248.062972	-3.014300	3.829100	-11.542000	22.776386	0.000485	20.676636
249.059978	-3.003800	3.827200	-11.496000	22.765426	0.000484	20.691263
250.061217	-2.992800	3.829400	-11.460000	22.785403	0.000486	20.705112
251.058840	-2.995500	3.827800	-11.465000	22.778860	0.000485	20.685279
252.059405	-2.996700	3.828200	-11.471000	22.818292	0.000486	20.680684
253.059808	-3.004700	3.827700	-11.500000	22.847091	0.000485	20.693888
254.064089	-3.003200	3.826800	-11.492000	22.844397	0.000484	20.679809
255.064622	-2.992700	3.828000	-11.455000	22.829129	0.000488	20.680635
256.066067	-2.996000	3.827000	-11.465000	22.861787	0.000487	20.677790
257.063290	-2.999900	3.826900	-11.479000	22.868535	0.000486	20.677438
258.063810	-3.012100	3.827100	-11.526000	22.842309	0.000488	20.680561
259.067405	-3.009400	3.826800	-11.516000	22.853487	0.000490	20.680380
260.064452	-2.998500	3.827700	-11.476000	22.878948	0.000490	20.658944
261.062790	-3.011800	3.826000	-11.523000	22.892614	0.000488	20.693027
262.063457	-3.022700	3.825500	-11.562000	22.925363	0.000490	20.684111
263.068582	-2.987700	3.826200	-11.430000	22.927720	0.000487	20.681730
264.066366	-2.987900	3.826800	-11.432000	22.930872	0.000488	20.683465
265.068194	-2.975500	3.826100	-11.384000	22.904344	0.000488	20.679647
266.068500	-3.015400	3.825800	-11.535000	22.919660	0.000491	20.678870
267.067799	-2.996800	3.825800	-11.464000	22.919308	0.000490	20.670457
268.068226	-2.990800	3.825400	-11.440000	22.931296	0.000490	20.700013
269.070686	-3.001500	3.823700	-11.476000	22.949134	0.000491	20.675208
270.065217	-3.017300	3.824200	-11.538000	22.933843	0.000489	20.671268
271.069572	-2.978200	3.824800	-11.390000	22.967640	0.000491	20.684267
272.069115	-2.972800	3.824300	-11.368000	22.969191	0.000491	20.693409
