LabVIEW Measurement	
Writer_Version	2
Reader_Version	2
Separator	Tab
Decimal_Separator	.
Multi_Headings	No
X_Columns	One
Time_Pref	Absolute
Operator	admin
Description	Clolumns are: time, Current, Voltage, Power, Battery Temp, and Chamber Temp
Date	2024/08/16
Time	13:07:17.8513970375061035156
***End_of_Header***	
	
Channels	6						
Samples	1	1	1	1	1	1	
Date	2024/09/19	2024/09/19	2024/09/19	2024/09/19	2024/09/19	2024/09/19	
Time	12:38:54.1336703300476074219	12:38:54.1418833732604980469	12:38:54.1489186286926269531	12:38:54.1163167953491210937	12:38:54.1163167953491210937	12:38:54.1163167953491210937	
X_Dimension	Time	Time	Time	Time	Time	Time	
X0	0.0000000000000000E+0	0.0000000000000000E+0	0.0000000000000000E+0	0.0000000000000000E+0	0.0000000000000000E+0	0.0000000000000000E+0	
Delta_X	1.000000	1.000000	1.000000	1.000000	1.000000	1.000000	
***End_of_Header***							
X_Value	Untitled	Untitled 1	Untitled 2	Untitled 3	Untitled 4	Untitled 5	Comment
0.000000	0.028447	4.083800	0.116160	20.849751	0.000475	20.858760
1.001858	-3.004500	3.911500	-11.752000	20.836850	0.000474	20.840169
2.006003	-2.986300	3.906400	-11.665000	20.850848	0.000474	20.840417
3.002909	-3.007100	3.901300	-11.730000	20.844406	0.000473	20.851044
4.003366	-3.025000	3.898600	-11.792000	20.835599	0.000473	20.855986
5.001635	-3.005000	3.896300	-11.708000	20.849696	0.000470	20.864868
6.001176	-3.002500	3.893500	-11.688000	20.857229	0.000470	20.858652
7.004847	-2.989900	3.890600	-11.631000	20.860796	0.000470	20.837090
8.002697	-3.005400	3.889500	-11.688000	20.863591	0.000470	20.842255
9.000750	-3.002900	3.887200	-11.672000	20.894707	0.000469	20.825010
10.003572	-2.996000	3.886200	-11.643000	20.877013	0.000469	20.846669
11.007766	-2.999500	3.884400	-11.650000	20.891564	0.000467	20.850790
12.007631	-3.001400	3.883200	-11.654000	20.901896	0.000468	20.846423
13.003918	-2.984200	3.881900	-11.584000	20.911375	0.000467	20.837412
14.009861	-3.028800	3.878700	-11.747000	20.921031	0.000467	20.844698
15.005507	-2.991700	3.879800	-11.606000	20.913572	0.000468	20.834394
16.009527	-2.986900	3.877200	-11.580000	20.939998	0.000467	20.836640
17.008768	-3.012700	3.876900	-11.679000	20.926670	0.000466	20.821889
18.005569	-3.004700	3.875100	-11.642000	20.941965	0.000464	20.838608
19.005268	-2.997500	3.875100	-11.615000	20.964824	0.000465	20.845348
20.010391	-3.009000	3.874900	-11.658000	20.965224	0.000465	20.830576
21.007963	-2.989700	3.875100	-11.584000	20.964027	0.000463	20.832224
22.007994	-2.983900	3.875100	-11.563000	20.978073	0.000463	20.846746
23.006018	-3.008000	3.872800	-11.647000	20.983418	0.000462	20.844031
24.005907	-3.023400	3.872200	-11.706000	20.990049	0.000462	20.818896
25.006757	-3.005800	3.871900	-11.637000	21.000655	0.000464	20.831874
26.004818	-3.009000	3.871000	-11.647000	21.018422	0.000460	20.832100
27.006876	-3.019500	3.870300	-11.685000	21.034816	0.000460	20.838540
28.009888	-3.008800	3.870500	-11.644000	21.039305	0.000460	20.802254
29.010571	-3.007800	3.869700	-11.638000	21.022942	0.000462	20.856061
30.013579	-2.986200	3.869700	-11.554000	21.046218	0.000459	20.822444
31.009345	-3.001500	3.869000	-11.612000	21.061837	0.000458	20.826212
32.009838	-2.992300	3.868400	-11.575000	21.061440	0.000460	20.818703
33.011468	-2.998500	3.866600	-11.593000	21.081870	0.000459	20.819698
34.011036	-3.017800	3.866300	-11.667000	21.083395	0.000459	20.830231
35.009298	-3.022300	3.865200	-11.680000	21.076408	0.000459	20.812338
36.012244	-3.007800	3.866200	-11.628000	21.094970	0.000458	20.819999
37.012393	-3.006000	3.865200	-11.618000	21.144466	0.000460	20.801231
38.009890	-2.998400	3.867100	-11.594000	21.121441	0.000460	20.823717
39.014991	-3.002500	3.864700	-11.603000	21.126878	0.000458	20.810665
40.011929	-3.001800	3.864700	-11.600000	21.139977	0.000459	20.823293
41.008998	-2.996100	3.864800	-11.578000	21.151453	0.000459	20.822918
42.017533	-2.978800	3.866000	-11.515000	21.140649	0.000459	20.811638
43.014446	-3.010500	3.865600	-11.637000	21.175627	0.000460	20.807745
44.012859	-2.995300	3.863900	-11.573000	21.178393	0.000458	20.821892
45.024043	-3.018400	3.862600	-11.657000	21.174224	0.000459	20.840006
46.014452	-3.039200	3.861000	-11.733000	21.181460	0.000457	20.811210
47.016685	-3.023700	3.863800	-11.682000	21.202366	0.000458	20.814105
48.013678	-3.012600	3.861700	-11.633000	21.220774	0.000459	20.805493
49.018009	-2.990200	3.862300	-11.548000	21.227010	0.000459	20.830697
50.012947	-3.005300	3.862600	-11.607000	21.229879	0.000458	20.804644
51.014983	-2.993600	3.862600	-11.562000	21.239677	0.000458	20.819662
52.015280	-3.010900	3.860400	-11.623000	21.257264	0.000457	20.822082
53.016651	-3.006500	3.859500	-11.603000	21.276195	0.000460	20.806881
54.017006	-3.011900	3.860800	-11.627000	21.262899	0.000456	20.813495
55.014908	-3.010000	3.859200	-11.614000	21.272527	0.000458	20.818385
56.015837	-2.989300	3.861800	-11.543000	21.301934	0.000459	20.809398
57.015545	-2.997300	3.860700	-11.570000	21.305800	0.000456	20.805205
58.018250	-2.992600	3.859400	-11.549000	21.306546	0.000458	20.833452
59.022535	-3.005400	3.857800	-11.593000	21.347928	0.000458	20.824118
60.020741	-3.006600	3.858100	-11.599000	21.338074	0.000457	20.810942
61.019956	-3.015400	3.859100	-11.635000	21.346955	0.000458	20.816033
62.026712	-2.988800	3.858600	-11.531000	21.332409	0.000457	20.807170
63.023504	-3.007300	3.856600	-11.597000	21.349669	0.000458	20.805472
64.021082	-3.005700	3.858000	-11.594000	21.336371	0.000457	20.810660
65.024924	-2.988800	3.857800	-11.529000	21.375035	0.000457	20.806194
66.016573	-3.012300	3.857700	-11.619000	21.375032	0.000457	20.798605
67.021232	-3.003800	3.857100	-11.584000	21.405186	0.000457	20.820713
68.024185	-3.006000	3.856100	-11.590000	21.399298	0.000457	20.812452
69.024848	-3.000100	3.858000	-11.574000	21.405905	0.000457	20.811002
70.022699	-2.989200	3.858500	-11.533000	21.433239	0.000457	20.809902
71.027602	-2.999700	3.856400	-11.567000	21.425508	0.000456	20.803115
72.018115	-2.995300	3.857300	-11.552000	21.439072	0.000457	20.814789
73.023162	-2.993100	3.856900	-11.543000	21.443011	0.000458	20.778428
74.026118	-3.019800	3.856400	-11.645000	21.433085	0.000457	20.827764
75.024437	-2.993000	3.856200	-11.541000	21.445855	0.000458	20.811619
76.025463	-3.002000	3.856500	-11.576000	21.495835	0.000460	20.804256
77.024259	-3.022300	3.855200	-11.650000	21.482542	0.000459	20.818929
78.022582	-3.017600	3.855600	-11.634000	21.499598	0.000459	20.811814
79.027579	-2.986500	3.855700	-11.514000	21.512343	0.000458	20.808446
80.026447	-3.012800	3.854900	-11.613000	21.504786	0.000458	20.810841
81.024490	-2.986100	3.855400	-11.512000	21.514861	0.000457	20.800534
82.025577	-2.988400	3.854700	-11.518000	21.521817	0.000459	20.787106
83.030082	-2.976900	3.855300	-11.476000	21.535782	0.000458	20.810088
84.027672	-2.988100	3.855800	-11.519000	21.555535	0.000458	20.791448
85.026511	-2.982500	3.854500	-11.495000	21.565486	0.000459	20.810888
86.027362	-2.998800	3.854700	-11.559000	21.581519	0.000459	20.831199
87.026206	-2.972900	3.855400	-11.460000	21.566607	0.000459	20.810113
88.024659	-2.971900	3.854700	-11.455000	21.565433	0.000459	20.804672
89.027353	-2.991600	3.853700	-11.528000	21.592844	0.000457	20.816454
90.023259	-3.005200	3.852300	-11.575000	21.580249	0.000460	20.800531
91.028697	-3.003700	3.852500	-11.571000	21.615684	0.000460	20.797584
92.027823	-3.007700	3.854300	-11.591000	21.620574	0.000460	20.794891
93.029264	-3.001900	3.853800	-11.568000	21.589949	0.000457	20.815453
94.031064	-2.999400	3.852500	-11.555000	21.635163	0.000459	20.805223
95.032281	-2.999100	3.853200	-11.555000	21.645509	0.000458	20.789024
96.029950	-2.996600	3.851600	-11.541000	21.630849	0.000458	20.802803
97.029219	-2.977500	3.853000	-11.472000	21.657184	0.000457	20.795018
98.029967	-3.003000	3.852300	-11.568000	21.649628	0.000459	20.781292
99.025243	-3.009900	3.852100	-11.594000	21.666811	0.000456	20.804178
100.034071	-2.997900	3.851600	-11.545000	21.665987	0.000457	20.794819
101.027859	-2.987900	3.851600	-11.507000	21.682722	0.000458	20.784540
102.030938	-2.980300	3.852500	-11.480000	21.677910	0.000458	20.783043
103.035353	-3.012400	3.851300	-11.601000	21.706612	0.000460	20.798966
104.028368	-2.992700	3.852000	-11.528000	21.708857	0.000458	20.791255
105.030845	-2.996100	3.850600	-11.535000	21.702199	0.000458	20.795498
106.031301	-2.999500	3.852100	-11.554000	21.718983	0.000458	20.781948
107.031929	-3.010400	3.849900	-11.588000	21.746015	0.000459	20.779605
108.027301	-2.991200	3.851700	-11.520000	21.735044	0.000460	20.794704
109.025699	-2.986900	3.851300	-11.502000	21.772025	0.000458	20.781455
110.028496	-3.001800	3.849400	-11.554000	21.791474	0.000459	20.785747
111.031738	-2.986500	3.849500	-11.495000	21.772601	0.000460	20.800049
112.030895	-3.014400	3.850100	-11.605000	21.780828	0.000458	20.785050
113.036047	-2.994000	3.848700	-11.522000	21.780085	0.000459	20.765814
114.035750	-2.997100	3.849400	-11.536000	21.802428	0.000460	20.791021
115.039390	-2.995600	3.848700	-11.529000	21.807515	0.000460	20.770983
116.037606	-2.986600	3.848500	-11.493000	21.814278	0.000460	20.783441
117.031155	-3.007300	3.849500	-11.576000	21.830062	0.000460	20.787860
118.043531	-2.999800	3.847400	-11.539000	21.821238	0.000462	20.776182
119.042902	-3.004700	3.848900	-11.563000	21.852928	0.000460	20.781349
120.032917	-2.998400	3.848800	-11.538000	21.845428	0.000461	20.772420
121.032006	-2.997100	3.848700	-11.534000	21.847500	0.000462	20.786821
122.039846	-2.987400	3.848800	-11.497000	21.846530	0.000461	20.795808
123.033212	-2.993200	3.848800	-11.520000	21.871266	0.000461	20.776470
124.033615	-2.994000	3.849300	-11.523000	21.903979	0.000461	20.785507
125.037044	-3.019400	3.847500	-11.616000	21.875133	0.000461	20.779866
126.050900	-2.989500	3.848200	-11.503000	21.909168	0.000461	20.775053
127.031985	-2.988400	3.848400	-11.499000	21.893418	0.000465	20.770668
128.034791	-3.000100	3.846300	-11.538000	21.919849	0.000462	20.772942
129.034844	-3.011200	3.848200	-11.586000	21.921022	0.000462	20.743770
130.032459	-3.011300	3.846400	-11.582000	21.917087	0.000463	20.777290
131.035495	-3.004000	3.847800	-11.558000	21.939378	0.000467	20.773050
132.039285	-3.018000	3.844600	-11.602000	21.954564	0.000463	20.759802
133.039183	-3.021500	3.846100	-11.620000	21.967656	0.000464	20.776227
134.038426	-3.018500	3.846000	-11.608000	21.961876	0.000464	20.744835
135.037990	-2.990500	3.845500	-11.499000	21.968708	0.000464	20.771116
136.036496	-2.994500	3.845200	-11.514000	21.963752	0.000467	20.760938
137.037269	-2.976600	3.846500	-11.448000	21.964804	0.000465	20.739232
138.037611	-2.972700	3.845500	-11.430000	22.003245	0.000466	20.767282
139.035223	-2.985100	3.846000	-11.480000	22.005369	0.000468	20.767511
140.037302	-2.992500	3.845500	-11.507000	22.018287	0.000469	20.745830
141.036259	-2.991400	3.844300	-11.499000	22.007520	0.000466	20.741215
142.038351	-3.022900	3.844200	-11.620000	22.021882	0.000470	20.750850
143.040565	-3.011400	3.844300	-11.576000	22.054838	0.000470	20.741643
144.042243	-3.010900	3.844500	-11.574000	22.035695	0.000468	20.759937
145.038792	-3.006100	3.845100	-11.557000	22.030710	0.000469	20.744041
146.041133	-2.989600	3.843500	-11.489000	22.039214	0.000470	20.728846
147.035633	-2.987100	3.843600	-11.481000	22.044802	0.000469	20.745346
148.042551	-2.998300	3.842100	-11.519000	22.068707	0.000470	20.730395
149.040191	-2.987400	3.844400	-11.483000	22.078430	0.000471	20.754355
150.037601	-3.000500	3.842600	-11.529000	22.068960	0.000472	20.745823
151.042762	-2.999400	3.841700	-11.521000	22.091168	0.000471	20.745296
152.042670	-3.021300	3.841800	-11.606000	22.097678	0.000472	20.758452
153.042009	-2.995400	3.843000	-11.510000	22.115824	0.000472	20.750066
154.046771	-3.006500	3.842500	-11.552000	22.140526	0.000473	20.745399
155.042855	-2.992400	3.841800	-11.495000	22.137613	0.000470	20.750069
156.040506	-2.989400	3.842000	-11.484000	22.147633	0.000471	20.739237
157.041962	-3.019100	3.841700	-11.597000	22.151471	0.000472	20.749245
158.044272	-2.994200	3.841200	-11.500000	22.178639	0.000473	20.743728
159.042062	-3.015800	3.841100	-11.583000	22.155263	0.000474	20.735971
160.042720	-3.000900	3.842300	-11.529000	22.164258	0.000475	20.738339
161.039732	-3.013900	3.839900	-11.573000	22.179763	0.000474	20.745327
162.047112	-2.999300	3.842400	-11.523000	22.175175	0.000475	20.749744
163.045180	-3.020800	3.840300	-11.600000	22.170894	0.000475	20.740241
164.044597	-3.013900	3.840100	-11.573000	22.179691	0.000475	20.733876
165.044601	-2.999800	3.840400	-11.519000	22.211170	0.000475	20.737892
166.044368	-2.988200	3.840100	-11.473000	22.205484	0.000474	20.728406
167.044406	-3.017200	3.839800	-11.584000	22.195617	0.000476	20.742708
168.043507	-2.988300	3.839100	-11.472000	22.191602	0.000476	20.732999
169.045601	-2.991900	3.840300	-11.489000	22.198607	0.000477	20.751392
170.046166	-2.986900	3.839700	-11.467000	22.220320	0.000477	20.729509
171.045155	-2.978500	3.840400	-11.438000	22.218122	0.000478	20.735369
172.042442	-2.981400	3.838600	-11.444000	22.243326	0.000476	20.729785
173.048230	-2.997400	3.839500	-11.507000	22.247960	0.000478	20.751495
174.053784	-2.988100	3.839200	-11.471000	22.251473	0.000478	20.741261
175.048162	-3.006400	3.838600	-11.539000	22.264008	0.000479	20.720620
176.046510	-2.995600	3.839100	-11.499000	22.281953	0.000480	20.729106
177.052235	-3.007900	3.837800	-11.543000	22.273881	0.000480	20.744732
178.046319	-2.999100	3.838600	-11.511000	22.264856	0.000479	20.743756
179.046063	-2.993800	3.837600	-11.487000	22.280582	0.000481	20.741010
180.052373	-3.007900	3.837400	-11.542000	22.294089	0.000481	20.739835
181.049049	-3.016900	3.837900	-11.578000	22.291244	0.000480	20.724659
182.047217	-3.008300	3.836100	-11.540000	22.321278	0.000482	20.737189
183.044466	-2.981800	3.837100	-11.441000	22.342985	0.000483	20.744701
184.049166	-3.031300	3.835400	-11.625000	22.360304	0.000481	20.756828
185.047369	-2.984000	3.837200	-11.449000	22.359704	0.000483	20.723509
186.042708	-3.023800	3.837100	-11.602000	22.361647	0.000482	20.715971
187.046531	-2.999400	3.836700	-11.507000	22.368923	0.000483	20.732267
188.055474	-2.997600	3.835400	-11.495000	22.355937	0.000482	20.726850
189.053759	-2.991300	3.834800	-11.470000	22.359698	0.000485	20.730141
190.052624	-3.007800	3.835000	-11.534000	22.361542	0.000483	20.749533
191.054563	-2.985500	3.837000	-11.454000	22.394486	0.000484	20.724674
192.047208	-3.001000	3.834800	-11.507000	22.398568	0.000484	20.735401
193.051527	-3.017000	3.834400	-11.566000	22.419330	0.000484	20.741020
194.063367	-3.009900	3.834500	-11.540000	22.423564	0.000485	20.727241
195.051920	-3.004700	3.834300	-11.520000	22.439313	0.000485	20.743961
196.052942	-2.994700	3.834300	-11.482000	22.453387	0.000485	20.755211
197.052414	-3.028900	3.832200	-11.606000	22.443645	0.000485	20.748300
198.052182	-3.023300	3.832900	-11.587000	22.457948	0.000485	20.742235
199.051668	-3.016600	3.833100	-11.562000	22.463679	0.000485	20.748448
200.057782	-2.998900	3.832500	-11.493000	22.466044	0.000487	20.735643
201.062248	-2.992200	3.834100	-11.472000	22.472722	0.000488	20.733796
202.063283	-2.987100	3.833900	-11.450000	22.466913	0.000488	20.747420
203.055067	-2.999900	3.833700	-11.500000	22.479870	0.000486	20.734791
204.057532	-2.994400	3.832700	-11.476000	22.510941	0.000488	20.753581
205.057020	-2.980900	3.831900	-11.421000	22.496908	0.000488	20.738578
206.054109	-2.989700	3.832600	-11.457000	22.528459	0.000487	20.730346
207.060310	-2.987700	3.831600	-11.447000	22.512934	0.000487	20.744197
208.060410	-2.987500	3.832400	-11.448000	22.531392	0.000487	20.736130
209.053529	-2.953600	3.833700	-11.322000	22.539072	0.000490	20.756624
210.067598	-2.983500	3.831100	-11.429000	22.534285	0.000489	20.749933
211.058502	-3.004300	3.830700	-11.508000	22.519213	0.000490	20.750011
212.058501	-3.006600	3.831800	-11.520000	22.542012	0.000490	20.764784
213.062327	-3.005900	3.830300	-11.512000	22.555964	0.000489	20.757895
214.059111	-3.001600	3.831500	-11.500000	22.589029	0.000488	20.746915
215.060414	-3.009900	3.829600	-11.526000	22.590428	0.000487	20.766334
216.060772	-2.997200	3.829800	-11.478000	22.608891	0.000488	20.760644
217.061826	-3.011200	3.830500	-11.532000	22.611979	0.000492	20.751883
218.056120	-3.003100	3.829900	-11.501000	22.625636	0.000491	20.736638
219.064608	-3.000200	3.829100	-11.487000	22.613179	0.000489	20.763043
220.059327	-3.021200	3.828100	-11.564000	22.627081	0.000491	20.756104
221.059523	-2.994700	3.830100	-11.470000	22.638919	0.000491	20.747097
222.064419	-2.965100	3.830700	-11.358000	22.643281	0.000492	20.766641
223.070135	-3.003300	3.827900	-11.495000	22.654370	0.000491	20.753565
224.063743	-3.016700	3.826700	-11.544000	22.629206	0.000492	20.764397
225.064721	-3.006600	3.828200	-11.509000	22.641140	0.000493	20.755961
226.066590	-3.000600	3.828900	-11.488000	22.676251	0.000493	20.753670
227.062433	-3.000700	3.828100	-11.486000	22.670595	0.000495	20.751799
228.060454	-3.014300	3.828600	-11.539000	22.693097	0.000493	20.754423
229.063556	-2.989300	3.828100	-11.442000	22.724562	0.000493	20.771717
230.064745	-2.993700	3.827300	-11.457000	22.708443	0.000494	20.751303
231.069041	-3.012800	3.827800	-11.531000	22.711113	0.000495	20.758245
232.064266	-2.992200	3.826700	-11.450000	22.746695	0.000493	20.759273
233.068098	-2.977900	3.827200	-11.396000	22.744151	0.000495	20.765261
234.062259	-2.990700	3.825500	-11.440000	22.789270	0.000494	20.754981
235.067886	-3.014600	3.826600	-11.535000	22.750982	0.000497	20.747921
236.069680	-2.974900	3.826700	-11.383000	22.761897	0.000498	20.754113
237.068366	-2.995300	3.824800	-11.456000	22.762067	0.000499	20.766138
238.067921	-2.995500	3.825400	-11.458000	22.750859	0.000497	20.760126
239.067942	-3.009500	3.825500	-11.512000	22.758611	0.000497	20.767892
240.067022	-3.010200	3.825300	-11.514000	22.757266	0.000498	20.768441
241.070755	-2.994100	3.826400	-11.455000	22.774306	0.000497	20.776501
242.069682	-2.989500	3.825700	-11.437000	22.786213	0.000501	20.763299
243.067476	-3.017500	3.824300	-11.539000	22.810477	0.000498	20.765794
244.069954	-2.979300	3.824300	-11.393000	22.827890	0.000497	20.768066
245.070673	-3.004600	3.824800	-11.490000	22.816778	0.000500	20.746028
246.069991	-2.988600	3.824600	-11.430000	22.832097	0.000499	20.782238
247.069770	-2.986700	3.824800	-11.423000	22.841588	0.000501	20.740536
248.074166	-3.017800	3.822300	-11.535000	22.834142	0.000502	20.768165
249.075230	-2.992600	3.823300	-11.441000	22.854640	0.000500	20.762146
250.073558	-2.977600	3.823700	-11.385000	22.896116	0.000504	20.765766
251.078205	-2.996700	3.823500	-11.457000	22.856134	0.000503	20.768859
252.075886	-3.019400	3.822100	-11.539000	22.882713	0.000504	20.769408
253.070551	-3.002100	3.822800	-11.475000	22.880519	0.000504	20.763891
254.073422	-3.017200	3.822500	-11.532000	22.903463	0.000504	20.765540
255.078327	-3.007000	3.821600	-11.491000	22.902513	0.000505	20.774072
256.074956	-3.001700	3.820700	-11.467000	22.892772	0.000505	20.788021
257.078930	-3.010900	3.821300	-11.505000	22.937186	0.000505	20.771351
258.072852	-3.029700	3.820400	-11.573000	22.923582	0.000506	20.795180
259.073164	-2.988400	3.820400	-11.415000	22.903679	0.000507	20.787094
260.074167	-3.012400	3.820100	-11.507000	22.913767	0.000506	20.784398
261.073291	-2.994200	3.820900	-11.440000	22.924674	0.000510	20.783471
262.073509	-2.987000	3.819600	-11.409000	22.932620	0.000507	20.774837
263.073354	-2.978900	3.821200	-11.381000	22.926988	0.000508	20.788635
264.074667	-3.002100	3.820000	-11.468000	22.915277	0.000507	20.775953
265.075680	-3.011800	3.819300	-11.501000	22.956401	0.000511	20.799137
266.075254	-3.014400	3.819000	-11.511000	22.921327	0.000508	20.773954
267.077470	-3.027000	3.819600	-11.561000	22.950144	0.000508	20.772005
268.081491	-3.003500	3.818100	-11.466000	22.962374	0.000510	20.785207
269.076588	-2.974000	3.818800	-11.356000	22.952952	0.000512	20.791415
270.080127	-2.997900	3.817800	-11.444000	22.981648	0.000512	20.782232
271.085261	-2.991200	3.818400	-11.421000	22.957435	0.000509	20.773620
272.079860	-2.981900	3.818800	-11.386000	23.010685	0.000512	20.789515
