LabVIEW Measurement	
Writer_Version	2
Reader_Version	2
Separator	Tab
Decimal_Separator	.
Multi_Headings	No
X_Columns	One
Time_Pref	Absolute
Operator	admin
Description	Clolumns are: time, Current, Voltage, Power, Battery Temp, and Chamber Temp
Date	2024/08/16
Time	12:06:05.0160207748413085938
***End_of_Header***	
	
Channels	6						
Samples	1	1	1	1	1	1	
Date	2024/09/20	2024/09/20	2024/09/20	2024/09/20	2024/09/20	2024/09/20	
Time	16:05:46.1547799110412597656	16:05:46.1617798805236816406	16:05:46.1687793731689453125	16:05:46.1357798576354980469	16:05:46.1357798576354980469	16:05:46.1357798576354980469	
X_Dimension	Time	Time	Time	Time	Time	Time	
X0	0.0000000000000000E+0	0.0000000000000000E+0	0.0000000000000000E+0	0.0000000000000000E+0	0.0000000000000000E+0	0.0000000000000000E+0	
Delta_X	1.000000	1.000000	1.000000	1.000000	1.000000	1.000000	
***End_of_Header***							
X_Value	Untitled	Untitled 1	Untitled 2	Untitled 3	Untitled 4	Untitled 5	Comment
0.000000	0.032393	3.288700	0.106490	21.164044	0.000207	20.795211
0.995998	3.007400	3.461900	10.412000	21.153633	0.000208	20.799021
1.997000	3.015400	3.475400	10.481000	21.168524	0.000210	20.784045
2.999000	3.012300	3.485500	10.500000	21.177221	0.000211	20.806021
4.010003	2.995500	3.494100	10.468000	21.175676	0.000213	20.804001
4.996001	3.017200	3.503700	10.572000	21.163980	0.000213	20.780448
6.000001	3.008300	3.509000	10.557000	21.165641	0.000215	20.803446
6.999002	3.012200	3.516000	10.591000	21.164700	0.000217	20.793970
7.997000	3.012300	3.523000	10.613000	21.159184	0.000216	20.805048
8.999001	3.001900	3.528800	10.594000	21.166564	0.000219	20.784455
9.995999	2.990000	3.533000	10.564000	21.177115	0.000220	20.783630
10.997999	3.007600	3.538700	10.644000	21.194849	0.000219	20.779085
11.998999	2.998100	3.544900	10.629000	21.176405	0.000222	20.787187
13.002999	3.000000	3.549400	10.649000	21.183115	0.000223	20.789158
14.000002	3.003300	3.553200	10.671000	21.175759	0.000225	20.780377
14.998002	2.998900	3.558500	10.673000	21.175833	0.000226	20.793727
16.000001	3.013600	3.563200	10.739000	21.181472	0.000227	20.762857
17.001002	3.009200	3.566700	10.733000	21.197033	0.000227	20.765147
18.002658	3.010400	3.570600	10.750000	21.179291	0.000229	20.775375
19.003655	3.005500	3.574500	10.744000	21.181619	0.000231	20.799041
20.007655	2.993200	3.577600	10.709000	21.176373	0.000230	20.774353
21.000654	2.997900	3.580900	10.735000	21.205410	0.000232	20.762622
22.002652	2.994900	3.585200	10.738000	21.192366	0.000234	20.773756
23.003655	2.998500	3.587600	10.757000	21.213239	0.000232	20.790369
24.001657	3.010700	3.592200	10.816000	21.220626	0.000235	20.779741
25.001654	3.020100	3.597000	10.864000	21.212193	0.000238	20.760872
26.004656	2.990500	3.597200	10.758000	21.205884	0.000237	20.775424
27.002655	2.988000	3.599900	10.757000	21.201137	0.000238	20.757398
28.000652	2.995600	3.604000	10.797000	21.221461	0.000238	20.749281
29.006708	2.994900	3.606600	10.802000	21.226086	0.000240	20.762917
30.003707	3.002600	3.609400	10.838000	21.242218	0.000239	20.780952
31.002709	3.003500	3.611500	10.848000	21.235165	0.000241	20.786224
32.006763	3.006600	3.613900	10.867000	21.235860	0.000243	20.776488
33.002633	2.990800	3.616500	10.817000	21.239406	0.000245	20.755379
34.005809	2.992400	3.619600	10.832000	21.253323	0.000245	20.762189
35.012587	2.996200	3.621000	10.851000	21.246941	0.000246	20.762917
36.004298	3.003100	3.624300	10.885000	21.279465	0.000247	20.752305
37.003546	2.999600	3.625000	10.875000	21.284875	0.000248	20.748234
38.006505	2.978300	3.626600	10.802000	21.273107	0.000249	20.780559
39.009470	3.002400	3.631100	10.903000	21.309454	0.000248	20.753858
40.007571	3.007300	3.633200	10.927000	21.296060	0.000250	20.773650
41.010308	3.011900	3.635400	10.950000	21.291272	0.000250	20.766963
42.014990	2.982500	3.636100	10.846000	21.325045	0.000254	20.745274
43.010544	3.004500	3.638900	10.934000	21.343928	0.000254	20.761322
44.013523	3.004900	3.640400	10.940000	21.345807	0.000254	20.770314
45.017344	3.013900	3.642100	10.978000	21.372020	0.000255	20.751969
46.012987	3.004200	3.644400	10.949000	21.349949	0.000256	20.764975
47.017393	3.015000	3.645100	10.991000	21.352997	0.000258	20.739574
48.011125	2.989400	3.645300	10.898000	21.349679	0.000259	20.739574
49.014863	2.995400	3.648700	10.930000	21.353151	0.000259	20.742100
50.017766	3.003200	3.651000	10.966000	21.354345	0.000259	20.752777
51.010876	3.010200	3.651900	10.993000	21.370164	0.000259	20.755327
52.016799	2.999000	3.654100	10.959000	21.390591	0.000260	20.763911
53.015762	2.989700	3.653400	10.923000	21.374780	0.000262	20.745247
54.019287	2.999400	3.655300	10.964000	21.400607	0.000263	20.772036
55.016730	2.986100	3.656200	10.918000	21.424744	0.000264	20.744977
56.023641	3.013900	3.657900	11.025000	21.431428	0.000266	20.748819
57.016180	2.992400	3.659500	10.952000	21.432930	0.000265	20.738468
58.014543	2.991900	3.659800	10.950000	21.427774	0.000266	20.741844
59.014204	2.989600	3.661700	10.947000	21.431320	0.000268	20.724528
60.013576	2.995600	3.662500	10.973000	21.451093	0.000269	20.759487
61.016459	2.994800	3.664200	10.975000	21.457008	0.000269	20.759241
62.013939	2.995000	3.665300	10.979000	21.476690	0.000270	20.731044
63.015759	3.018900	3.666800	11.071000	21.503104	0.000273	20.739456
64.019254	2.990400	3.666200	10.964000	21.494770	0.000272	20.740127
65.013863	3.006600	3.666500	11.025000	21.497867	0.000271	20.755079
66.019461	3.014600	3.668500	11.060000	21.514673	0.000275	20.763361
67.017466	3.020300	3.669200	11.082000	21.541542	0.000275	20.738090
68.017965	2.993700	3.670700	10.990000	21.554442	0.000276	20.757637
69.018165	3.006800	3.670800	11.038000	21.553740	0.000276	20.744131
70.017489	3.014400	3.673700	11.074000	21.568299	0.000277	20.740682
71.019235	2.988400	3.673200	10.979000	21.561795	0.000278	20.743657
72.020977	3.022300	3.676800	11.113000	21.592749	0.000280	20.740967
73.016634	3.006200	3.675500	11.050000	21.609610	0.000283	20.748831
74.016433	2.982900	3.675100	10.964000	21.600509	0.000281	20.742569
75.020898	2.988200	3.676400	10.987000	21.618384	0.000282	20.731058
76.019463	2.989900	3.678200	10.998000	21.616415	0.000286	20.734304
77.021351	2.994000	3.677500	11.011000	21.643595	0.000284	20.724992
78.021339	2.979100	3.679500	10.962000	21.645890	0.000287	20.734402
79.020094	2.988700	3.678200	10.993000	21.671942	0.000287	20.746723
80.018287	2.998500	3.680700	11.037000	21.684513	0.000287	20.724690
81.018046	3.008300	3.683100	11.081000	21.665137	0.000289	20.734223
82.020879	2.999500	3.683200	11.048000	21.693213	0.000290	20.741932
83.020318	3.018100	3.683400	11.118000	21.738720	0.000290	20.721567
84.025920	2.992200	3.683600	11.023000	21.710669	0.000290	20.724314
85.019867	3.002700	3.685200	11.066000	21.755825	0.000292	20.751015
86.024423	2.995200	3.685400	11.039000	21.753726	0.000294	20.740380
87.022132	3.018700	3.687200	11.132000	21.734179	0.000295	20.732196
88.029977	2.983500	3.686900	11.000000	21.765415	0.000295	20.726000
89.021732	2.988300	3.688200	11.023000	21.792524	0.000296	20.718518
90.025331	3.003600	3.688100	11.079000	21.793570	0.000297	20.731419
91.027628	3.013200	3.689700	11.119000	21.811442	0.000298	20.725599
92.027445	3.012500	3.691100	11.120000	21.825180	0.000298	20.727970
93.027699	3.004100	3.691200	11.090000	21.823612	0.000298	20.728297
94.025877	2.983900	3.691200	11.015000	21.840813	0.000302	20.738402
95.029522	3.022300	3.692800	11.161000	21.866843	0.000304	20.723204
96.026356	3.006200	3.693500	11.104000	21.890897	0.000301	20.724046
97.026334	3.008300	3.693400	11.112000	21.896785	0.000303	20.724250
98.026870	3.025600	3.695300	11.181000	21.896680	0.000303	20.716558
99.026981	3.009000	3.694300	11.117000	21.905263	0.000304	20.727995
100.022439	3.009700	3.695300	11.123000	21.920014	0.000304	20.732803
101.022602	2.987800	3.695200	11.041000	21.934102	0.000306	20.714187
102.024817	3.025800	3.696800	11.187000	21.930835	0.000307	20.719452
103.024475	3.008700	3.698400	11.128000	21.977827	0.000308	20.732353
104.028256	3.001600	3.697600	11.100000	22.001927	0.000308	20.722339
105.025942	3.001000	3.699400	11.103000	22.014863	0.000309	20.717744
106.026447	2.995400	3.699400	11.082000	22.016186	0.000309	20.704843
107.028663	3.000900	3.700400	11.106000	22.007162	0.000312	20.711931
108.032640	3.004900	3.702300	11.126000	22.039738	0.000314	20.703290
109.029493	3.002200	3.702700	11.117000	22.061501	0.000315	20.710853
110.033045	3.006300	3.702600	11.132000	22.033500	0.000313	20.714590
111.036009	3.019000	3.702800	11.179000	22.048207	0.000315	20.715563
112.035005	3.015100	3.705000	11.172000	22.065896	0.000317	20.708614
113.034876	3.004400	3.705500	11.134000	22.085772	0.000316	20.722823
114.032728	3.000000	3.706400	11.120000	22.091399	0.000317	20.715654
115.036308	2.994200	3.705700	11.096000	22.116991	0.000318	20.714248
116.031317	2.996000	3.706800	11.107000	22.109715	0.000320	20.727353
117.032239	3.010300	3.708600	11.164000	22.118314	0.000321	20.726479
118.029858	3.005500	3.707600	11.144000	22.136858	0.000321	20.708533
119.033356	3.009800	3.708700	11.164000	22.151230	0.000322	20.716759
120.042774	2.988200	3.707600	11.080000	22.158496	0.000323	20.715973
121.032281	3.006400	3.710100	11.155000	22.177850	0.000323	20.721125
122.036603	2.994300	3.709400	11.107000	22.179246	0.000325	20.687907
123.032308	3.001600	3.711900	11.142000	22.205219	0.000324	20.729562
124.033329	3.014700	3.711700	11.190000	22.202581	0.000325	20.701315
125.038350	3.008500	3.712900	11.171000	22.227550	0.000327	20.711143
126.040324	2.991300	3.713000	11.108000	22.253996	0.000329	20.710595
127.053481	3.008800	3.714100	11.177000	22.228424	0.000328	20.702059
128.033700	3.002600	3.714600	11.154000	22.220913	0.000330	20.713981
129.033635	2.998000	3.714200	11.136000	22.255360	0.000329	20.729980
130.033439	3.006000	3.715300	11.169000	22.235895	0.000330	20.701005
131.040174	3.002200	3.715200	11.155000	22.260446	0.000331	20.719425
132.035064	3.009900	3.716900	11.188000	22.278441	0.000333	20.704251
133.035802	3.016000	3.717800	11.213000	22.274057	0.000332	20.704128
134.033908	3.003100	3.718300	11.168000	22.297334	0.000333	20.690925
135.035986	3.013900	3.718900	11.209000	22.316920	0.000334	20.697735
136.044369	2.998900	3.718900	11.153000	22.328039	0.000336	20.711241
137.036638	2.995700	3.719700	11.144000	22.343241	0.000336	20.710816
138.037928	3.005300	3.720000	11.180000	22.364605	0.000339	20.706131
139.037006	3.006400	3.721200	11.188000	22.343273	0.000338	20.706580
140.039671	2.998500	3.722700	11.163000	22.362540	0.000341	20.702165
141.040709	2.985600	3.721900	11.113000	22.379308	0.000342	20.678652
142.042576	3.005100	3.723600	11.190000	22.373030	0.000341	20.680900
143.040855	3.004900	3.723700	11.190000	22.392893	0.000342	20.707430
144.039042	3.002000	3.724200	11.181000	22.404534	0.000343	20.683524
145.046324	3.006400	3.724400	11.197000	22.419489	0.000343	20.698976
146.041655	2.997500	3.725700	11.168000	22.423775	0.000346	20.720339
147.040531	3.005100	3.727000	11.201000	22.449195	0.000347	20.696956
148.042192	2.996700	3.726600	11.168000	22.435325	0.000347	20.719577
149.045630	2.994400	3.727600	11.163000	22.461057	0.000348	20.702197
150.045235	2.995900	3.728400	11.170000	22.481489	0.000348	20.690890
151.046255	3.002300	3.730100	11.199000	22.464199	0.000350	20.714354
152.050391	2.996100	3.728700	11.172000	22.466012	0.000351	20.694831
153.047201	3.014900	3.730700	11.248000	22.480974	0.000351	20.685632
154.049019	2.997200	3.729600	11.179000	22.502581	0.000354	20.692099
155.047784	2.996800	3.731400	11.183000	22.508409	0.000350	20.674227
156.045170	2.991900	3.733400	11.171000	22.543714	0.000354	20.692517
157.052466	2.996700	3.732000	11.185000	22.538562	0.000354	20.706799
158.048037	2.992800	3.733200	11.174000	22.569310	0.000354	20.676900
159.046253	3.009800	3.734000	11.239000	22.559793	0.000354	20.692025
160.048149	2.994800	3.734500	11.184000	22.569335	0.000358	20.689728
161.048809	2.990600	3.734200	11.169000	22.578951	0.000359	20.676123
162.051679	3.010500	3.735100	11.245000	22.581129	0.000357	20.695851
163.054677	3.018300	3.735500	11.275000	22.569360	0.000359	20.706823
164.051606	2.994900	3.736700	11.191000	22.583194	0.000360	20.678003
165.049241	3.007100	3.737700	11.241000	22.605020	0.000362	20.688485
166.053061	2.999300	3.738400	11.213000	22.635668	0.000365	20.697371
167.056310	2.992900	3.736900	11.186000	22.660186	0.000363	20.677831
168.056474	3.006500	3.739600	11.243000	22.688385	0.000363	20.675730
169.054914	3.002900	3.739400	11.230000	22.696889	0.000365	20.700846
170.060343	3.000600	3.739300	11.221000	22.738765	0.000366	20.679728
171.055311	3.003600	3.740400	11.235000	22.759616	0.000364	20.690185
172.057401	2.996800	3.741400	11.213000	22.771467	0.000368	20.679770
173.059926	3.001300	3.741500	11.230000	22.815020	0.000371	20.693529
174.052463	3.001000	3.741700	11.230000	22.823270	0.000369	20.692310
175.058614	2.991700	3.742100	11.196000	22.806322	0.000371	20.691453
176.054342	3.011300	3.743200	11.273000	22.820644	0.000370	20.694895
177.054633	2.999500	3.743400	11.229000	22.816107	0.000372	20.669010
178.055138	3.015800	3.744800	11.295000	22.807766	0.000373	20.664922
179.058443	3.006600	3.744200	11.258000	22.824283	0.000374	20.679573
180.054820	2.996000	3.746200	11.224000	22.845680	0.000374	20.680620
181.057327	3.003400	3.745800	11.251000	22.855963	0.000374	20.685232
182.057974	2.991900	3.746000	11.209000	22.858403	0.000375	20.675821
183.055965	3.005700	3.747400	11.265000	22.862336	0.000378	20.714378
184.063743	3.000400	3.747600	11.245000	22.864654	0.000380	20.665013
185.053716	3.006800	3.748100	11.271000	22.866571	0.000379	20.690170
186.060637	2.989600	3.748700	11.208000	22.837896	0.000380	20.689892
187.064399	3.001400	3.748800	11.252000	22.830015	0.000381	20.681047
188.056122	3.004900	3.749500	11.267000	22.838990	0.000382	20.679608
189.067278	3.020700	3.751800	11.333000	22.855941	0.000383	20.692323
190.059074	2.995800	3.750600	11.237000	22.896668	0.000384	20.689976
191.059055	2.989500	3.750700	11.214000	22.922649	0.000384	20.691350
192.060225	3.000100	3.752100	11.258000	22.922421	0.000385	20.716727
193.059983	3.020800	3.753500	11.339000	22.932875	0.000387	20.671247
194.054851	3.004800	3.753100	11.277000	22.961369	0.000387	20.693632
195.059313	3.000200	3.752000	11.257000	22.949211	0.000387	20.684770
196.061729	3.016300	3.754900	11.327000	22.966592	0.000389	20.699340
197.059700	3.009400	3.754000	11.298000	22.976081	0.000390	20.687984
198.068902	3.002700	3.755600	11.278000	22.963777	0.000391	20.699839
199.062399	2.993300	3.756000	11.243000	22.980610	0.000392	20.681615
200.063638	2.992500	3.754900	11.237000	22.997272	0.000391	20.698310
201.062329	3.010200	3.757200	11.311000	23.025462	0.000391	20.690045
202.063796	2.992400	3.756700	11.242000	23.042369	0.000392	20.685173
203.063728	2.992200	3.757800	11.245000	23.076310	0.000396	20.683146
204.063122	2.993500	3.758300	11.252000	23.092571	0.000394	20.689957
205.062903	3.017000	3.759100	11.342000	23.099767	0.000396	20.708075
206.067793	3.004800	3.758300	11.294000	23.127310	0.000396	20.694421
207.076657	3.009500	3.760100	11.316000	23.119307	0.000397	20.700153
208.064166	2.993700	3.760800	11.259000	23.137485	0.000399	20.699402
209.061174	3.010800	3.760400	11.322000	23.129244	0.000398	20.686402
210.065053	2.995200	3.760400	11.264000	23.106370	0.000399	20.703311
211.066411	3.001200	3.761800	11.291000	23.135830	0.000399	20.684466
212.063306	3.010600	3.763100	11.330000	23.138563	0.000402	20.686257
213.067168	3.010800	3.762100	11.328000	23.141827	0.000402	20.705650
214.063642	3.001000	3.762800	11.293000	23.154122	0.000403	20.689520
215.063562	3.016200	3.765400	11.358000	23.152923	0.000405	20.702544
216.067309	2.996100	3.765200	11.281000	23.180882	0.000405	20.694051
217.069121	2.986400	3.765300	11.245000	23.195550	0.000407	20.689783
218.067736	2.992600	3.764700	11.268000	23.195297	0.000408	20.689530
219.068779	3.010700	3.766300	11.340000	23.217437	0.000407	20.695122
220.064649	3.019500	3.767600	11.377000	23.235539	0.000409	20.702832
221.068499	3.016000	3.766400	11.360000	23.243992	0.000410	20.692810
222.070480	3.017800	3.768000	11.372000	23.271581	0.000410	20.687267
223.066426	3.003400	3.767400	11.316000	23.267494	0.000413	20.698820
224.069486	3.015000	3.768700	11.364000	23.304888	0.000412	20.710692
225.067635	3.006900	3.766000	11.325000	23.311560	0.000413	20.693671
226.068707	3.012300	3.768700	11.354000	23.324025	0.000416	20.703319
227.072334	3.008100	3.769800	11.340000	23.338064	0.000415	20.724029
228.071787	3.011400	3.770200	11.354000	23.369631	0.000417	20.719157
229.069919	3.034000	3.771600	11.444000	23.362209	0.000415	20.714562
230.069976	3.012700	3.770400	11.360000	23.387121	0.000418	20.692114
231.070037	3.013300	3.772100	11.367000	23.381566	0.000418	20.711204
232.071833	3.000000	3.770500	11.312000	23.410269	0.000418	20.717214
233.077698	3.003100	3.772900	11.331000	23.408345	0.000421	20.738994
234.074233	3.011400	3.772500	11.361000	23.453538	0.000419	20.732609
235.073453	2.998300	3.772300	11.311000	23.425596	0.000422	20.716455
236.074038	3.002800	3.773500	11.332000	23.418567	0.000421	20.712254
237.072171	2.977400	3.774100	11.237000	23.436928	0.000423	20.699362
238.076579	2.980200	3.773100	11.245000	23.464519	0.000424	20.728917
239.072139	3.008000	3.774000	11.353000	23.459235	0.000423	20.718878
240.073627	3.004300	3.776000	11.345000	23.438168	0.000425	20.720996
241.073844	3.005600	3.775600	11.349000	23.447696	0.000427	20.717269
242.071095	3.007100	3.775400	11.354000	23.452647	0.000425	20.703265
243.076562	3.007500	3.777000	11.360000	23.436514	0.000428	20.722657
244.076357	2.995400	3.776900	11.314000	23.471390	0.000427	20.738649
245.075010	2.996800	3.776500	11.318000	23.468569	0.000427	20.706422
246.077403	2.990100	3.776800	11.294000	23.511019	0.000430	20.723370
247.076525	3.013400	3.778000	11.385000	23.521443	0.000432	20.728129
248.072141	3.011100	3.778600	11.378000	23.533569	0.000432	20.726060
249.079079	3.000500	3.779300	11.341000	23.537255	0.000432	20.706046
250.077714	3.005500	3.780400	11.363000	23.541032	0.000432	20.702720
251.087286	3.009900	3.781900	11.384000	23.551487	0.000433	20.726952
252.074670	3.010600	3.780300	11.381000	23.524592	0.000435	20.715164
253.077560	2.992200	3.781100	11.315000	23.521379	0.000437	20.734230
254.076671	2.998700	3.781700	11.341000	23.522896	0.000437	20.727216
255.079774	2.993700	3.781900	11.323000	23.530514	0.000439	20.729636
256.081086	2.987500	3.781300	11.297000	23.542356	0.000439	20.710211
257.078719	2.993900	3.782500	11.325000	23.540864	0.000439	20.740960
258.077449	3.007800	3.783300	11.380000	23.552633	0.000441	20.741377
259.080657	3.016000	3.782800	11.410000	23.595300	0.000442	20.733889
260.081902	2.997300	3.783400	11.341000	23.610747	0.000440	20.735150
261.080607	2.991300	3.782600	11.316000	23.631306	0.000442	20.721620
262.081880	3.005100	3.784100	11.373000	23.635913	0.000443	20.741886
263.079707	3.002800	3.784900	11.366000	23.643529	0.000443	20.714907
264.079349	2.985300	3.784100	11.298000	23.634242	0.000445	20.735943
265.083522	2.995900	3.786000	11.343000	23.665278	0.000445	20.726755
266.084686	2.997400	3.786700	11.351000	23.664560	0.000446	20.722716
267.079359	3.001600	3.787500	11.369000	23.646353	0.000448	20.725325
268.082161	3.014000	3.787400	11.416000	23.642464	0.000447	20.724271
269.083752	3.001300	3.786100	11.364000	23.635615	0.000449	20.721672
270.088073	3.002900	3.787300	11.374000	23.688414	0.000448	20.726242
271.085205	3.010300	3.788200	11.404000	23.692965	0.000450	20.746926
272.081886	3.010100	3.788300	11.404000	23.710887	0.000451	20.730755
273.087166	2.997500	3.788700	11.357000	23.735178	0.000451	20.744678
274.084430	2.991200	3.788100	11.331000	23.730228	0.000452	20.733551
275.086588	3.007100	3.790100	11.398000	23.728403	0.000454	20.741679
276.087742	2.998500	3.791600	11.370000	23.752333	0.000453	20.736747
277.089542	3.009100	3.789800	11.405000	23.755391	0.000453	20.757832
278.086777	2.984400	3.788600	11.308000	23.775555	0.000456	20.732055
279.087168	2.996500	3.790000	11.357000	23.825227	0.000455	20.744401
280.095161	2.991600	3.790600	11.341000	23.806987	0.000458	20.737966
