LabVIEW Measurement	
Writer_Version	2
Reader_Version	2
Separator	Tab
Decimal_Separator	.
Multi_Headings	No
X_Columns	One
Time_Pref	Absolute
Operator	admin
Description	Clolumns are: time, Current, Voltage, Power, Battery Temp, and Chamber Temp
Date	2024/05/20
Time	14:38:09.5907945632934570313
***End_of_Header***	
	
Channels	6						
Samples	1	1	1	1	1	1	
Date	2024/06/11	2024/06/11	2024/06/11	2024/06/11	2024/06/11	2024/06/11	
Time	20:42:48.0797238349914550781	20:42:48.0858550071716308594	20:42:48.0907344818115234375	20:42:48.0643000602722167969	20:42:48.0643000602722167969	20:42:48.0643000602722167969	
X_Dimension	Time	Time	Time	Time	Time	Time	
X0	0.0000000000000000E+0	0.0000000000000000E+0	0.0000000000000000E+0	0.0000000000000000E+0	0.0000000000000000E+0	0.0000000000000000E+0	
Delta_X	1.000000	1.000000	1.000000	1.000000	1.000000	1.000000	
***End_of_Header***							
X_Value	Untitled	Untitled 1	Untitled 2	Untitled 3	Untitled 4	Untitled 5	Comment
0.000000	0.024083	2.966500	0.071461	20.789285	-0.000134	20.743291
1.003970	3.016800	3.082700	9.300500	20.791907	-0.000135	20.747810
2.001165	2.997200	3.095100	9.277500	20.777431	-0.000135	20.727643
3.000998	2.999000	3.104900	9.312900	20.781896	-0.000134	20.744911
4.002240	2.986400	3.112000	9.294200	20.778275	-0.000135	20.757886
5.002290	2.986500	3.119700	9.318200	20.804228	-0.000136	20.751596
6.002825	3.008200	3.128400	9.411100	20.767890	-0.000134	20.738017
7.008000	3.013600	3.135500	9.450100	20.773379	-0.000134	20.752515
8.003096	3.006800	3.141700	9.447400	20.760228	-0.000136	20.745054
9.005766	3.001600	3.148800	9.452000	20.769535	-0.000136	20.732549
10.002174	3.007200	3.154200	9.485600	20.783982	-0.000134	20.744627
11.003988	3.001400	3.160600	9.486900	20.786899	-0.000135	20.761769
12.005534	2.997300	3.165100	9.487500	20.804992	-0.000135	20.749516
13.002997	3.019900	3.172000	9.579700	20.781633	-0.000134	20.751761
14.004555	3.004900	3.176200	9.545200	20.777517	-0.000134	20.743851
15.004043	3.022800	3.183500	9.623200	20.780961	-0.000136	20.760572
16.002962	3.000300	3.188800	9.568400	20.771898	-0.000134	20.764312
17.005564	3.018300	3.192800	9.637500	20.772671	-0.000135	20.754652
18.006228	3.009700	3.198200	9.626100	20.765134	-0.000135	20.755177
19.004057	3.021400	3.202700	9.677400	20.775667	-0.000138	20.742949
20.006322	2.993000	3.206300	9.597500	20.778411	-0.000136	20.743797
21.004319	3.007000	3.213800	9.664400	20.776913	-0.000135	20.771223
22.002836	3.000400	3.216600	9.652400	20.772322	-0.000134	20.768055
23.008179	3.002400	3.220300	9.669600	20.770925	-0.000133	20.770925
24.005696	3.007500	3.226200	9.703600	20.766334	-0.000134	20.775343
25.006147	3.004200	3.230100	9.704400	20.768080	-0.000136	20.755752
26.006643	3.004600	3.234200	9.718100	20.753708	-0.000135	20.765562
27.007715	3.012600	3.238100	9.756000	20.770551	-0.000135	20.754904
28.010482	3.004800	3.241600	9.740500	20.778587	-0.000135	20.748240
29.008751	3.004100	3.245900	9.751000	20.765235	-0.000138	20.768554
30.009102	2.990300	3.250300	9.719500	20.777136	-0.000134	20.774291
31.014307	2.998800	3.253300	9.757000	20.775914	-0.000132	20.758370
32.009361	2.998000	3.258000	9.768100	20.775638	-0.000135	20.770896
33.009671	2.999800	3.261300	9.784100	20.768252	-0.000135	20.768726
34.012058	3.006200	3.265700	9.817700	20.775286	-0.000135	20.756319
35.009562	3.003600	3.269100	9.819400	20.771144	-0.000135	20.775885
36.010218	3.002600	3.271700	9.824400	20.765253	-0.000134	20.757666
37.010711	3.017700	3.276100	9.887300	20.763855	-0.000136	20.780925
38.011064	3.003100	3.279600	9.849800	20.768345	-0.000135	20.773087
39.010979	3.001900	3.282600	9.855100	20.767767	-0.000136	20.773931
40.011031	3.001200	3.285300	9.860700	20.774959	-0.000135	20.781597
41.011741	3.003300	3.288800	9.877800	20.760252	-0.000136	20.776374
42.012047	3.010000	3.291900	9.909100	20.787678	-0.000137	20.780566
43.012673	2.998000	3.295000	9.879300	20.805768	-0.000136	20.779215
44.012858	3.008800	3.298300	9.924600	20.788052	-0.000135	20.754386
45.017061	3.006200	3.301200	9.924200	20.777868	-0.000135	20.769807
46.014509	3.004400	3.304500	9.928700	20.795013	-0.000136	20.773202
47.013048	3.014700	3.307900	9.972800	20.797280	-0.000136	20.782581
48.013891	3.014000	3.312300	9.983700	20.781309	-0.000138	20.782732
49.015075	3.005000	3.312900	9.956700	20.791414	-0.000136	20.789517
50.016023	3.017100	3.316500	10.007000	20.791859	-0.000136	20.792333
51.016632	3.015900	3.320100	10.013000	20.798045	-0.000136	20.762957
52.015657	3.003200	3.321300	9.975100	20.802240	-0.000137	20.788964
53.016880	3.009000	3.323800	10.002000	20.792678	-0.000136	20.763754
54.015708	3.019100	3.327600	10.048000	20.804133	-0.000135	20.800340
55.014688	3.006300	3.330100	10.012000	20.844608	-0.000134	20.809047
56.017081	3.006600	3.333400	10.023000	20.799291	-0.000135	20.782222
57.017213	2.994800	3.334300	9.986500	20.814385	-0.000138	20.782617
58.017137	3.016600	3.337700	10.069000	20.810764	-0.000138	20.782789
59.017406	3.007300	3.340300	10.046000	20.812635	-0.000138	20.777548
60.017504	3.022200	3.343000	10.104000	20.812409	-0.000134	20.808616
61.019943	3.013800	3.345800	10.084000	20.830700	-0.000135	20.787552
62.018451	2.997800	3.347300	10.035000	20.821766	-0.000135	20.787153
63.017684	2.995400	3.350100	10.035000	20.846095	-0.000136	20.803896
64.019019	3.012800	3.353100	10.103000	20.822991	-0.000137	20.771309
65.018622	3.012400	3.355700	10.110000	20.834389	-0.000137	20.785077
66.018738	3.015600	3.358600	10.129000	20.857944	-0.000137	20.806263
67.023863	3.006300	3.360400	10.103000	20.846289	-0.000136	20.797926
68.019518	3.018900	3.363100	10.154000	20.850207	-0.000137	20.793310
69.022132	3.018600	3.365100	10.159000	20.847955	-0.000137	20.794851
70.022423	2.989500	3.367800	10.069000	20.853745	-0.000134	20.787839
71.019524	2.996300	3.368900	10.095000	20.853645	-0.000136	20.801963
72.024003	3.014800	3.374000	10.173000	20.871960	-0.000137	20.784718
73.021394	3.001900	3.373900	10.128000	20.869187	-0.000135	20.793324
74.020988	3.001100	3.375500	10.130000	20.871331	-0.000137	20.811590
75.021524	3.005300	3.377400	10.150000	20.889771	-0.000136	20.802057
76.020958	3.003800	3.382100	10.160000	20.865566	-0.000137	20.799661
77.021078	3.017700	3.383600	10.211000	20.887300	-0.000136	20.803379
78.021246	3.011500	3.385600	10.197000	20.896628	-0.000135	20.803224
79.021890	3.018000	3.388000	10.226000	20.869481	-0.000135	20.783188
80.022554	3.014000	3.388800	10.214000	20.886223	-0.000135	20.807517
81.021001	3.005300	3.391500	10.193000	20.901193	-0.000136	20.807790
82.020943	3.003900	3.393000	10.193000	20.897699	-0.000136	20.791493
83.022755	3.002100	3.394100	10.191000	20.912572	-0.000135	20.793091
84.021313	3.005300	3.397200	10.211000	20.909052	-0.000138	20.805218
85.021314	2.984800	3.398200	10.143000	20.899872	-0.000136	20.785605
86.022049	3.021700	3.401700	10.279000	20.914691	-0.000136	20.802323
87.022020	3.002800	3.402600	10.218000	20.901790	-0.000136	20.796532
88.030402	2.984700	3.405000	10.163000	20.917212	-0.000137	20.795835
89.021935	3.007600	3.407300	10.249000	20.909454	-0.000136	20.779542
90.024157	3.001800	3.408700	10.233000	20.933982	-0.000135	20.787951
91.024726	3.004200	3.411000	10.248000	20.936180	-0.000137	20.786356
92.024969	3.008900	3.413500	10.272000	20.933382	-0.000136	20.772652
93.024380	2.999900	3.413500	10.241000	20.942318	-0.000136	20.784908
94.027761	2.997000	3.415600	10.238000	20.934255	-0.000135	20.764990
95.025373	2.993900	3.418500	10.235000	20.949027	-0.000136	20.788773
96.027295	3.000000	3.419700	10.260000	20.926619	-0.000136	20.755456
97.026307	2.988600	3.420900	10.224000	20.954896	-0.000136	20.781366
98.026960	2.990200	3.423300	10.237000	20.963002	-0.000134	20.773826
99.030495	2.989300	3.423800	10.235000	20.948557	-0.000136	20.779768
100.024954	3.005300	3.426100	10.297000	20.959583	-0.000137	20.769933
101.027135	2.996400	3.428500	10.274000	20.964525	-0.000136	20.781039
102.028238	3.003800	3.430000	10.304000	20.967919	-0.000136	20.755510
103.028706	2.993200	3.430400	10.268000	20.992219	-0.000137	20.786453
104.030928	2.991900	3.432500	10.270000	20.984788	-0.000135	20.778072
105.028951	2.996300	3.434000	10.290000	20.985636	-0.000139	20.771808
106.028403	3.001500	3.436000	10.314000	21.000379	-0.000137	20.766164
107.033682	2.986600	3.436300	10.263000	21.001629	-0.000136	20.772630
108.028800	2.989400	3.437800	10.277000	21.002699	-0.000138	20.751415
109.028912	2.997200	3.439400	10.309000	20.998256	-0.000135	20.772102
110.030009	2.993200	3.441000	10.300000	21.015226	-0.000138	20.759203
111.027981	3.006000	3.442400	10.349000	20.998303	-0.000136	20.766459
112.027865	3.006400	3.445200	10.359000	21.013599	-0.000135	20.763740
113.028604	2.991000	3.445100	10.305000	21.030065	-0.000137	20.765036
114.029265	2.996000	3.447200	10.328000	21.036102	-0.000137	20.774394
115.031884	3.007200	3.448400	10.370000	21.022829	-0.000139	20.766807
116.029616	2.998700	3.448800	10.343000	21.040096	-0.000137	20.758474
117.029826	3.001400	3.451700	10.360000	21.035054	-0.000137	20.766707
118.030144	2.997900	3.452400	10.350000	21.040096	-0.000137	20.771276
119.029410	3.013600	3.453600	10.408000	21.054939	-0.000136	20.762888
120.031225	3.010700	3.455800	10.405000	21.062427	-0.000136	20.779387
121.033864	2.997400	3.457000	10.363000	21.074572	-0.000137	20.737955
122.030411	3.018100	3.459200	10.441000	21.083432	-0.000138	20.764835
123.031335	2.996100	3.457700	10.360000	21.072152	-0.000136	20.773941
124.030361	2.991000	3.459400	10.349000	21.073872	-0.000136	20.770920
125.030960	3.004800	3.461000	10.401000	21.077966	-0.000136	20.760316
126.034023	2.997700	3.463200	10.382000	21.077790	-0.000136	20.744019
127.031905	2.998400	3.462000	10.381000	21.091885	-0.000138	20.742944
128.031203	3.000400	3.464600	10.396000	21.103090	-0.000136	20.748462
129.031208	3.013400	3.465300	10.443000	21.101018	-0.000137	20.746389
130.031462	2.997700	3.465700	10.390000	21.096177	-0.000137	20.740599
131.035280	2.990800	3.467000	10.370000	21.119706	-0.000135	20.759393
132.030345	2.996900	3.468200	10.395000	21.114761	-0.000135	20.771991
133.031807	3.020800	3.470300	10.483000	21.141431	-0.000135	20.719009
134.032975	2.987200	3.469400	10.364000	21.125117	-0.000135	20.755323
135.031203	3.003700	3.471100	10.427000	21.114190	-0.000137	20.748186
136.032095	2.999200	3.473400	10.418000	21.131402	-0.000135	20.765403
137.035048	2.983500	3.473000	10.362000	21.130680	-0.000136	20.744292
138.031294	3.011700	3.473900	10.463000	21.139413	-0.000136	20.748760
139.031921	3.017200	3.475700	10.487000	21.158097	-0.000136	20.765080
140.031403	3.011300	3.475200	10.465000	21.161092	-0.000138	20.742944
141.031731	3.008700	3.478400	10.467000	21.145723	-0.000137	20.747011
142.033511	3.007600	3.477000	10.458000	21.172838	-0.000137	20.736202
143.031378	3.009200	3.479700	10.472000	21.151260	-0.000136	20.735954
144.030916	3.004300	3.480200	10.456000	21.184666	-0.000135	20.730016
145.031524	2.984300	3.480300	10.387000	21.191848	-0.000137	20.743839
146.032145	3.011200	3.481700	10.485000	21.208685	-0.000135	20.748354
147.033956	3.000300	3.482900	10.450000	21.190749	-0.000138	20.761232
148.035954	3.008100	3.484800	10.483000	21.216047	-0.000137	20.735329
149.033463	3.004700	3.484400	10.470000	21.230787	-0.000135	20.737747
150.033991	3.010000	3.486000	10.494000	21.196861	-0.000135	20.736525
151.033434	3.022700	3.485800	10.537000	21.212725	-0.000135	20.745283
152.034956	3.001900	3.487000	10.469000	21.224948	-0.000135	20.733802
153.035379	3.006900	3.487300	10.487000	21.216172	-0.000136	20.746835
154.035773	3.003300	3.487900	10.476000	21.246227	-0.000137	20.748926
155.035790	2.990300	3.488600	10.433000	21.243634	-0.000136	20.732581
156.036383	2.997900	3.489300	10.461000	21.239641	-0.000137	20.739967
157.037051	2.988100	3.489600	10.428000	21.259620	-0.000136	20.735771
158.046140	2.996700	3.493900	10.471000	21.253907	-0.000135	20.731004
159.039812	2.995000	3.492900	10.462000	21.265552	-0.000138	20.739809
160.038912	2.982100	3.492800	10.416000	21.270719	-0.000135	20.761100
161.039587	2.992700	3.495200	10.460000	21.288280	-0.000135	20.723191
162.039007	3.005400	3.495100	10.505000	21.286607	-0.000136	20.713456
163.041187	2.999600	3.496700	10.489000	21.284611	-0.000135	20.742280
164.044191	2.999400	3.496400	10.488000	21.313001	-0.000137	20.733224
165.039864	2.999600	3.499000	10.496000	21.324325	-0.000134	20.741709
166.041091	2.997000	3.497900	10.484000	21.287278	-0.000138	20.733569
167.041282	3.009400	3.499300	10.531000	21.331183	-0.000136	20.747147
168.041269	2.986900	3.499800	10.454000	21.316735	-0.000137	20.705664
169.045262	3.007300	3.501500	10.531000	21.321898	-0.000137	20.718417
170.041698	2.998800	3.501000	10.500000	21.337412	-0.000138	20.724929
171.043828	3.011900	3.502000	10.549000	21.341731	-0.000137	20.723561
172.044219	3.006200	3.502700	10.531000	21.336292	-0.000137	20.738982
173.044970	3.004400	3.503400	10.526000	21.383009	-0.000135	20.731194
174.047960	2.986500	3.504600	10.467000	21.363877	-0.000138	20.724854
175.048885	2.994800	3.505200	10.498000	21.386973	-0.000135	20.713822
176.045000	3.009900	3.505200	10.551000	21.366096	-0.000134	20.716168
177.047997	2.985700	3.506500	10.470000	21.383279	-0.000136	20.719135
178.047742	3.008500	3.508900	10.557000	21.387544	-0.000137	20.709177
179.047998	3.003700	3.508400	10.539000	21.401133	-0.000135	20.727516
180.051088	3.001200	3.508000	10.529000	21.416449	-0.000138	20.731934
181.049526	2.996200	3.509400	10.516000	21.417120	-0.000139	20.704629
182.049743	2.995000	3.509400	10.512000	21.408611	-0.000136	20.734525
183.050359	3.006400	3.511700	10.558000	21.435401	-0.000138	20.710118
184.051510	2.991100	3.510900	10.502000	21.453355	-0.000135	20.720023
185.055410	3.004800	3.512000	10.554000	21.435645	-0.000137	20.717001
186.052005	3.014400	3.513600	10.592000	21.464376	-0.000134	20.717774
187.051805	2.997500	3.513500	10.532000	21.457365	-0.000137	20.714077
188.052777	3.003200	3.515000	10.557000	21.471607	-0.000137	20.722164
189.052452	3.011300	3.514200	10.582000	21.466268	-0.000137	20.697380
190.052192	3.002000	3.514800	10.552000	21.489287	-0.000136	20.707137
191.055931	3.000200	3.516100	10.549000	21.481454	-0.000136	20.697876
192.050900	3.000200	3.515700	10.548000	21.478589	-0.000135	20.702122
193.055017	2.992900	3.517000	10.527000	21.475721	-0.000137	20.731971
194.052601	2.989200	3.516300	10.511000	21.519241	-0.000134	20.711031
195.053108	2.991000	3.517800	10.522000	21.515249	-0.000136	20.706088
196.056530	3.003600	3.519300	10.572000	21.523154	-0.000137	20.702144
197.051702	3.017900	3.520000	10.623000	21.533629	-0.000136	20.693659
198.053648	3.003600	3.520900	10.576000	21.557871	-0.000135	20.709382
199.053995	2.991300	3.520300	10.531000	21.549191	-0.000136	20.704490
200.054559	3.001100	3.520700	10.567000	21.563284	-0.000136	20.727602
201.057190	2.988100	3.521300	10.522000	21.560789	-0.000136	20.700448
202.054926	2.999200	3.522900	10.566000	21.562311	-0.000135	20.702445
203.055891	3.004500	3.524200	10.589000	21.581487	-0.000136	20.690339
204.061187	2.975900	3.522400	10.484000	21.595853	-0.000134	20.693809
205.056184	2.994800	3.524200	10.555000	21.601711	-0.000135	20.693508
206.057184	3.002000	3.524300	10.580000	21.582259	-0.000136	20.686370
207.058742	2.997200	3.524500	10.564000	21.591535	-0.000137	20.715568
208.056823	2.985300	3.524800	10.523000	21.621012	-0.000134	20.692434
209.057169	2.998400	3.525900	10.572000	21.630409	-0.000134	20.698045
210.059222	2.991100	3.525200	10.545000	21.620183	-0.000137	20.716736
211.059199	3.002500	3.526000	10.588000	21.641608	-0.000134	20.696924
212.060167	2.990400	3.527200	10.548000	21.648389	-0.000134	20.692804
213.061543	3.024600	3.528100	10.672000	21.654071	-0.000132	20.688532
214.061311	3.013200	3.527100	10.628000	21.648385	-0.000135	20.689007
215.060332	3.002600	3.527800	10.593000	21.677090	-0.000133	20.702086
216.061652	3.015100	3.528300	10.639000	21.655543	-0.000136	20.683841
217.063058	3.002400	3.528400	10.594000	21.687510	-0.000133	20.690228
218.064939	3.017400	3.528700	10.648000	21.695087	-0.000134	20.683586
219.062932	2.991600	3.529600	10.560000	21.715563	-0.000135	20.690803
220.064174	3.006500	3.530700	10.616000	21.697434	-0.000133	20.689729
221.062364	2.983700	3.530300	10.534000	21.710327	-0.000133	20.675603
222.060645	2.997200	3.530800	10.583000	21.737429	-0.000135	20.687555
223.064689	3.005300	3.530500	10.611000	21.719149	-0.000137	20.681588
224.063892	3.009500	3.532500	10.632000	21.729400	-0.000133	20.684735
225.062611	3.014600	3.533100	10.651000	21.749919	-0.000134	20.655008
226.062028	2.993700	3.531700	10.573000	21.741840	-0.000134	20.684383
227.063188	3.022600	3.533700	10.682000	21.765951	-0.000133	20.682911
228.067271	3.006100	3.533000	10.621000	21.789413	-0.000133	20.683158
229.062764	3.007900	3.533600	10.629000	21.767021	-0.000135	20.708165
230.064185	2.996300	3.534100	10.590000	21.789739	-0.000132	20.673527
231.066688	3.010200	3.536000	10.645000	21.772085	-0.000135	20.677195
232.063600	3.007200	3.535600	10.633000	21.810056	-0.000137	20.683906
233.065376	3.022200	3.536900	10.690000	21.788964	-0.000134	20.667535
234.068099	3.003200	3.534900	10.617000	21.828485	-0.000133	20.685281
235.065860	3.000300	3.536700	10.612000	21.822998	-0.000134	20.675521
236.065991	3.012000	3.536600	10.653000	21.837583	-0.000133	20.684430
237.066247	2.996800	3.535800	10.597000	21.823895	-0.000135	20.667883
238.064931	2.984900	3.537800	10.561000	21.840849	-0.000135	20.662092
239.065792	2.999600	3.536700	10.610000	21.848253	-0.000134	20.665236
240.066116	3.007000	3.538200	10.641000	21.855735	-0.000135	20.682210
241.066206	3.001800	3.538400	10.623000	21.874084	-0.000133	20.697259
242.069301	2.997900	3.538400	10.609000	21.864686	-0.000134	20.663666
243.065939	3.001300	3.540000	10.626000	21.878972	-0.000133	20.666586
244.065599	3.010500	3.540600	10.659000	21.890115	-0.000134	20.661144
245.066951	3.010500	3.540600	10.659000	21.911952	-0.000134	20.654078
246.065864	2.994200	3.540500	10.602000	21.917238	-0.000136	20.668379
247.065338	3.003300	3.539700	10.631000	21.911830	-0.000133	20.664388
248.065322	2.996500	3.541100	10.612000	21.920830	-0.000135	20.649213
249.066009	2.995700	3.541400	10.610000	21.925316	-0.000135	20.680734
250.067919	3.000600	3.541800	10.629000	21.928707	-0.000136	20.671799
251.065610	3.014100	3.541700	10.676000	21.944891	-0.000135	20.667610
252.064483	3.002300	3.541700	10.634000	21.922929	-0.000133	20.691622
253.066894	3.002300	3.543300	10.639000	21.956482	-0.000135	20.655029
254.066628	3.004000	3.543400	10.645000	21.958976	-0.000134	20.664165
255.068435	3.006400	3.543000	10.652000	21.968299	-0.000134	20.676344
256.071208	3.004100	3.544800	10.650000	21.969368	-0.000134	20.665559
257.067925	2.995800	3.543800	10.617000	21.988143	-0.000136	20.661119
258.069103	3.010200	3.545600	10.674000	21.991785	-0.000136	20.655281
259.067108	3.007300	3.544300	10.659000	22.007089	-0.000135	20.660645
260.067449	3.011300	3.545700	10.678000	21.992682	-0.000136	20.672776
261.068468	3.017100	3.545500	10.698000	22.024941	-0.000136	20.680888
262.067420	3.001900	3.544900	10.642000	22.011431	-0.000136	20.664043
263.067535	3.017900	3.545800	10.701000	22.034614	-0.000135	20.660224
264.067808	2.993100	3.546500	10.616000	22.033516	-0.000135	20.643950
265.067053	3.002600	3.546900	10.651000	22.061116	-0.000134	20.655460
266.074318	3.008600	3.547600	10.674000	22.066050	-0.000135	20.662297
267.068992	3.001400	3.546100	10.644000	22.055458	-0.000135	20.656908
268.069803	3.012100	3.547900	10.688000	22.077270	-0.000134	20.668314
269.072695	3.001200	3.546300	10.644000	22.085175	-0.000134	20.660580
270.070529	3.021300	3.548400	10.722000	22.063664	-0.000135	20.664650
271.071292	2.999500	3.549300	10.647000	22.085677	-0.000135	20.670567
272.074222	3.004300	3.549500	10.664000	22.093700	-0.000134	20.679074
273.071252	3.000900	3.548400	10.649000	22.107313	-0.000137	20.654767
274.071533	3.011300	3.548300	10.686000	22.111428	-0.000136	20.658887
275.071235	3.006100	3.549500	10.670000	22.116164	-0.000135	20.646558
276.071244	3.012400	3.550700	10.697000	22.114069	-0.000135	20.668645
277.074887	3.008400	3.549600	10.679000	22.119081	-0.000136	20.651850
