LabVIEW Measurement	
Writer_Version	2
Reader_Version	2
Separator	Tab
Decimal_Separator	.
Multi_Headings	No
X_Columns	One
Time_Pref	Absolute
Operator	admin
Description	Clolumns are: time, Current, Voltage, Power, Battery Temp, and Chamber Temp
Date	2024/08/16
Time	13:07:17.8513970375061035156
***End_of_Header***	
	
Channels	6						
Samples	1	1	1	1	1	1	
Date	2024/09/12	2024/09/12	2024/09/12	2024/09/12	2024/09/12	2024/09/12	
Time	04:09:08.2965993881225585938	04:09:08.3044848442077636719	04:09:08.3104872703552246094	04:09:08.2802815437316894531	04:09:08.2802815437316894531	04:09:08.2802815437316894531	
X_Dimension	Time	Time	Time	Time	Time	Time	
X0	0.0000000000000000E+0	0.0000000000000000E+0	0.0000000000000000E+0	0.0000000000000000E+0	0.0000000000000000E+0	0.0000000000000000E+0	
Delta_X	1.000000	1.000000	1.000000	1.000000	1.000000	1.000000	
***End_of_Header***							
X_Value	Untitled	Untitled 1	Untitled 2	Untitled 3	Untitled 4	Untitled 5	Comment
0.000000	0.022932	4.092200	0.093859	20.778462	0.000460	20.814023
1.002582	-3.002900	3.920000	-11.771000	20.771349	0.000460	20.779410
1.999857	-3.001600	3.915200	-11.751000	20.789269	0.000460	20.804442
3.000809	-3.016900	3.909600	-11.794000	20.766164	0.000460	20.782760
4.000350	-2.973200	3.908100	-11.618000	20.771602	0.000459	20.798155
5.001024	-3.020000	3.903500	-11.787000	20.756133	0.000458	20.795963
6.004226	-3.001700	3.901400	-11.710000	20.770130	0.000455	20.777717
7.006764	-2.984800	3.898500	-11.635000	20.783062	0.000455	20.788278
8.001609	-3.027200	3.896000	-11.794000	20.822343	0.000453	20.810963
9.008142	-2.991200	3.896400	-11.655000	20.796542	0.000454	20.805550
10.007295	-3.006900	3.892500	-11.704000	20.808789	0.000453	20.798358
11.001534	-2.996200	3.891500	-11.659000	20.819344	0.000454	20.776670
12.005456	-3.008900	3.889900	-11.702000	20.833950	0.000453	20.791277
13.002596	-2.992100	3.889800	-11.638000	20.808549	0.000453	20.796221
14.002790	-3.017100	3.888000	-11.730000	20.825945	0.000453	20.786591
15.006309	-3.013300	3.887600	-11.713000	20.838143	0.000451	20.773659
16.005469	-2.986900	3.887300	-11.610000	20.861302	0.000449	20.780697
17.009555	-2.999200	3.884500	-11.649000	20.844689	0.000452	20.791585
18.004833	-3.022900	3.884400	-11.741000	20.870858	0.000451	20.780771
19.005812	-3.000500	3.882400	-11.647000	20.860385	0.000450	20.774564
20.002361	-2.999200	3.883500	-11.647000	20.888924	0.000449	20.786510
21.001562	-2.976400	3.882600	-11.555000	20.909145	0.000449	20.769275
22.006196	-3.016500	3.881300	-11.707000	20.889004	0.000447	20.790384
23.005485	-3.025100	3.879600	-11.736000	20.907070	0.000449	20.783795
24.003746	-3.011500	3.878400	-11.679000	20.922346	0.000448	20.767778
25.003073	-2.986100	3.878600	-11.581000	20.940011	0.000446	20.787342
26.010743	-3.005100	3.878600	-11.654000	20.927912	0.000446	20.767181
27.004588	-3.012700	3.877000	-11.679000	20.932801	0.000448	20.772545
28.007268	-3.017100	3.876600	-11.695000	20.945774	0.000447	20.788838
29.003308	-2.983000	3.876700	-11.563000	20.961955	0.000446	20.776572
30.003783	-2.996900	3.875600	-11.613000	20.968339	0.000446	20.762095
31.010679	-2.979300	3.877000	-11.550000	20.977944	0.000446	20.770753
32.005983	-3.000600	3.874800	-11.624000	21.020814	0.000444	20.771904
33.007770	-2.987000	3.874900	-11.574000	20.994463	0.000443	20.769256
34.010244	-3.002300	3.872800	-11.626000	20.998336	0.000444	20.762698
35.009100	-2.989700	3.874700	-11.583000	21.000127	0.000445	20.758800
36.005729	-3.007900	3.873800	-11.651000	21.028072	0.000444	20.767785
37.006804	-3.010100	3.871700	-11.653000	21.059317	0.000441	20.775328
38.006108	-2.977400	3.872500	-11.528000	21.064507	0.000442	20.765346
39.008348	-3.002900	3.873100	-11.630000	21.052132	0.000443	20.753917
40.008573	-3.009800	3.871000	-11.650000	21.065830	0.000444	20.757187
41.008179	-3.006500	3.871100	-11.638000	21.059914	0.000441	20.770710
42.009532	-3.013300	3.870700	-11.662000	21.066582	0.000443	20.763628
43.009706	-3.012900	3.871000	-11.662000	21.088935	0.000443	20.748054
44.014398	-3.016700	3.869700	-11.673000	21.104049	0.000444	20.750370
45.009393	-3.005800	3.869900	-11.632000	21.095676	0.000441	20.763807
46.009957	-2.996300	3.868800	-11.591000	21.104357	0.000439	20.759213
47.008633	-3.003800	3.869000	-11.621000	21.128360	0.000440	20.776585
48.009967	-2.998800	3.868600	-11.600000	21.119298	0.000439	20.746182
49.008909	-2.999900	3.868200	-11.603000	21.122721	0.000442	20.746287
50.013499	-2.993200	3.869100	-11.579000	21.135814	0.000440	20.754644
51.009355	-2.991100	3.867800	-11.568000	21.157945	0.000442	20.769669
52.010463	-2.960900	3.869100	-11.454000	21.153482	0.000441	20.756196
53.011196	-2.996600	3.867300	-11.588000	21.162261	0.000438	20.751700
54.008863	-2.997500	3.868000	-11.593000	21.168897	0.000441	20.755494
55.013392	-3.003800	3.867200	-11.616000	21.197392	0.000440	20.764084
56.010972	-2.992800	3.866700	-11.572000	21.196862	0.000440	20.765925
57.011022	-2.985100	3.867700	-11.544000	21.205320	0.000441	20.776757
58.010582	-2.991000	3.867300	-11.567000	21.207690	0.000441	20.748307
59.010974	-3.032400	3.864800	-11.719000	21.225418	0.000440	20.757981
60.011734	-2.978900	3.867600	-11.520000	21.222851	0.000440	20.772957
61.011749	-3.002200	3.866100	-11.606000	21.233254	0.000442	20.756811
62.011519	-2.988700	3.865500	-11.552000	21.250120	0.000441	20.741915
63.011791	-2.996200	3.864500	-11.578000	21.239416	0.000443	20.761553
64.012967	-3.010900	3.864600	-11.635000	21.274120	0.000441	20.739372
65.013477	-3.001400	3.865800	-11.601000	21.278281	0.000439	20.765820
66.014299	-2.986600	3.865600	-11.545000	21.280300	0.000440	20.745080
67.014013	-3.004300	3.862900	-11.605000	21.275856	0.000441	20.749643
68.013465	-2.991200	3.864300	-11.558000	21.292272	0.000441	20.730978
69.020806	-2.987800	3.864300	-11.544000	21.316541	0.000441	20.741034
70.015170	-3.010100	3.863700	-11.629000	21.305216	0.000440	20.738238
71.018117	-3.012900	3.862800	-11.638000	21.305616	0.000439	20.746225
72.016468	-2.986100	3.865000	-11.541000	21.335074	0.000440	20.750093
73.020322	-3.012700	3.862500	-11.636000	21.336275	0.000440	20.762199
74.018262	-2.984300	3.864500	-11.531000	21.360845	0.000441	20.761177
75.017545	-2.999600	3.862800	-11.585000	21.354512	0.000439	20.750099
76.020025	-2.988500	3.862600	-11.543000	21.385569	0.000440	20.746558
77.021070	-2.988500	3.863200	-11.545000	21.360396	0.000440	20.752667
78.023878	-2.992400	3.863800	-11.561000	21.390899	0.000439	20.741933
79.019075	-2.998000	3.861900	-11.577000	21.370699	0.000440	20.746854
80.021741	-3.000100	3.860900	-11.582000	21.397158	0.000439	20.751515
81.019086	-3.002600	3.861800	-11.595000	21.394290	0.000440	20.726833
82.021598	-3.006400	3.862300	-11.611000	21.394745	0.000441	20.751472
83.020355	-3.002400	3.860700	-11.590000	21.426718	0.000441	20.735098
84.020195	-3.012100	3.861600	-11.630000	21.424890	0.000440	20.735639
85.020695	-2.995200	3.860500	-11.562000	21.438332	0.000440	20.744347
86.021241	-3.017800	3.861900	-11.654000	21.457336	0.000439	20.746767
87.021579	-2.995300	3.860800	-11.563000	21.450031	0.000438	20.713852
88.022296	-3.016300	3.859500	-11.640000	21.483529	0.000440	20.717497
89.024165	-2.993200	3.860100	-11.553000	21.488791	0.000441	20.731772
90.023302	-3.001600	3.859500	-11.583000	21.477842	0.000441	20.753061
91.023422	-2.988700	3.860000	-11.535000	21.483178	0.000440	20.753184
92.025095	-2.993600	3.859600	-11.553000	21.516096	0.000440	20.741551
93.028557	-2.998200	3.859000	-11.569000	21.513481	0.000441	20.746995
94.024647	-3.012200	3.860100	-11.627000	21.535475	0.000440	20.733915
95.028066	-3.030200	3.858800	-11.692000	21.531407	0.000439	20.734112
96.026627	-3.002400	3.860300	-11.590000	21.563807	0.000438	20.733342
97.026581	-3.011200	3.859100	-11.619000	21.563081	0.000439	20.764385
98.027882	-2.999400	3.858900	-11.574000	21.562183	0.000439	20.752106
99.031121	-2.988500	3.858600	-11.531000	21.562478	0.000439	20.749557
100.027615	-2.989400	3.858500	-11.534000	21.564053	0.000441	20.741650
101.030315	-3.033400	3.858000	-11.702000	21.572182	0.000441	20.733188
102.028810	-3.025200	3.856900	-11.666000	21.608113	0.000441	20.745437
103.032484	-3.005300	3.857600	-11.593000	21.591911	0.000440	20.735861
104.029280	-3.018100	3.858100	-11.643000	21.595708	0.000439	20.734445
105.029193	-3.027700	3.857400	-11.678000	21.596151	0.000440	20.754329
106.029523	-3.008400	3.857100	-11.603000	21.607874	0.000442	20.718643
107.030896	-2.995600	3.857600	-11.555000	21.616298	0.000441	20.731815
108.035026	-3.021600	3.857200	-11.653000	21.627817	0.000444	20.740498
109.031558	-3.014000	3.857500	-11.625000	21.623583	0.000442	20.730097
110.032522	-2.974000	3.858400	-11.474000	21.627768	0.000442	20.709153
111.034785	-2.994200	3.856500	-11.546000	21.628315	0.000443	20.735781
112.033772	-2.999400	3.856000	-11.564000	21.644628	0.000444	20.735510
113.034771	-2.989800	3.856500	-11.530000	21.672256	0.000442	20.739925
114.036073	-2.994400	3.857600	-11.550000	21.670281	0.000442	20.721352
115.033862	-2.994800	3.855500	-11.545000	21.667666	0.000442	20.723477
116.035072	-3.001400	3.856400	-11.573000	21.683350	0.000444	20.712620
117.037323	-3.006000	3.855400	-11.589000	21.727005	0.000443	20.724068
118.035172	-2.987900	3.855800	-11.520000	21.727282	0.000443	20.734303
119.039627	-3.013200	3.853900	-11.611000	21.712848	0.000446	20.725072
120.036038	-3.001700	3.855600	-11.572000	21.736604	0.000443	20.717552
121.035890	-2.994100	3.855300	-11.543000	21.748626	0.000443	20.729586
122.035496	-3.014800	3.855400	-11.623000	21.751364	0.000445	20.724265
123.035352	-3.003500	3.855300	-11.579000	21.743661	0.000445	20.714184
124.040337	-3.030100	3.854700	-11.679000	21.770216	0.000445	20.745504
125.036916	-2.998000	3.855000	-11.556000	21.757523	0.000445	20.721420
126.035857	-2.999100	3.854900	-11.560000	21.779439	0.000445	20.718223
127.035550	-3.002300	3.852800	-11.567000	21.770080	0.000447	20.715495
128.037356	-2.995900	3.854900	-11.547000	21.803870	0.000446	20.717072
129.036874	-2.979500	3.854500	-11.484000	21.840003	0.000446	20.709140
130.038623	-2.981100	3.855000	-11.492000	21.822943	0.000445	20.729049
131.038292	-2.998200	3.853200	-11.552000	21.835014	0.000447	20.721216
132.037288	-2.986500	3.854100	-11.509000	21.850370	0.000445	20.703394
133.040727	-2.998200	3.852500	-11.550000	21.871589	0.000445	20.696657
134.046044	-2.983200	3.853100	-11.494000	21.887270	0.000448	20.722312
135.047065	-2.981900	3.853500	-11.490000	21.891927	0.000448	20.718913
136.038198	-2.994100	3.851700	-11.532000	21.871459	0.000446	20.712650
137.037401	-3.016700	3.851400	-11.617000	21.898608	0.000447	20.701891
138.038323	-3.011100	3.851700	-11.598000	21.897464	0.000448	20.716868
139.039303	-2.993300	3.851100	-11.526000	21.895194	0.000446	20.707957
140.039596	-3.007400	3.851500	-11.582000	21.895791	0.000446	20.719461
141.041747	-2.994300	3.851700	-11.532000	21.910124	0.000449	20.724326
142.040667	-2.988100	3.852400	-11.510000	21.920669	0.000450	20.720181
143.040941	-2.993600	3.850500	-11.526000	21.946475	0.000449	20.707606
144.045459	-2.993800	3.851800	-11.531000	21.938220	0.000447	20.700290
145.041882	-2.991300	3.850700	-11.517000	21.945504	0.000451	20.706633
146.043836	-2.996300	3.851900	-11.541000	22.006324	0.000450	20.703505
147.041753	-2.990900	3.850800	-11.516000	21.986430	0.000450	20.729585
148.041306	-3.021600	3.851000	-11.635000	21.972847	0.000450	20.725946
149.041491	-2.979200	3.849900	-11.469000	21.959277	0.000452	20.716628
150.041855	-2.996000	3.849100	-11.531000	21.976409	0.000449	20.701060
151.042654	-2.989700	3.850300	-11.510000	21.991462	0.000450	20.716129
152.041655	-3.000900	3.849100	-11.549000	22.014117	0.000450	20.721265
153.041293	-3.003600	3.850500	-11.564000	22.013194	0.000449	20.685251
154.041472	-3.019800	3.848800	-11.621000	22.020945	0.000450	20.715298
155.041266	-3.005200	3.849400	-11.567000	22.018109	0.000454	20.715778
156.041629	-2.993900	3.848400	-11.520000	22.016805	0.000451	20.715895
157.042299	-3.022400	3.848400	-11.630000	22.011029	0.000451	20.701577
158.041636	-3.002300	3.847800	-11.551000	22.025054	0.000455	20.723205
159.043965	-3.003700	3.848000	-11.557000	22.059058	0.000452	20.705561
160.046608	-2.990000	3.848300	-11.506000	22.048490	0.000454	20.713949
161.045816	-2.998200	3.847500	-11.535000	22.047764	0.000451	20.720335
162.047752	-2.991500	3.848500	-11.510000	22.051049	0.000452	20.706553
163.045777	-2.994200	3.848200	-11.521000	22.042228	0.000453	20.718112
164.046416	-3.013000	3.846700	-11.589000	22.071218	0.000456	20.704933
165.048079	-2.989900	3.847000	-11.502000	22.097920	0.000451	20.707483
166.045341	-3.003200	3.847600	-11.554000	22.116433	0.000454	20.712742
167.047353	-2.976800	3.847100	-11.451000	22.142285	0.000456	20.707329
168.046784	-3.000300	3.846500	-11.540000	22.146652	0.000453	20.709804
169.047416	-2.986700	3.848000	-11.491000	22.159033	0.000456	20.705130
170.048115	-2.998400	3.846800	-11.533000	22.146000	0.000454	20.693503
171.049137	-3.000100	3.845600	-11.537000	22.176580	0.000454	20.698042
172.057742	-3.010600	3.844500	-11.573000	22.155865	0.000457	20.727090
173.049292	-3.024400	3.846000	-11.631000	22.153928	0.000457	20.697648
174.049086	-3.010900	3.845700	-11.578000	22.185880	0.000457	20.740072
175.049226	-3.000500	3.847000	-11.541000	22.177159	0.000456	20.726124
176.049862	-3.005100	3.845800	-11.557000	22.181046	0.000456	20.718635
177.049561	-3.000000	3.844500	-11.533000	22.198494	0.000458	20.719510
178.048746	-2.991900	3.845300	-11.504000	22.195905	0.000457	20.697950
179.048586	-2.999700	3.845100	-11.533000	22.206717	0.000457	20.721105
180.048196	-2.979800	3.843900	-11.453000	22.197375	0.000458	20.745891
181.053518	-2.986400	3.844400	-11.480000	22.221921	0.000457	20.731112
182.048573	-3.002400	3.843600	-11.539000	22.230033	0.000459	20.720742
183.052989	-2.983800	3.843800	-11.469000	22.236982	0.000459	20.704939
184.051861	-2.987700	3.843600	-11.483000	22.245537	0.000459	20.703073
185.051420	-2.983000	3.844500	-11.467000	22.240599	0.000460	20.715199
186.050037	-3.016900	3.843400	-11.593000	22.248901	0.000462	20.726358
187.051276	-2.962000	3.844800	-11.387000	22.280180	0.000462	20.730650
188.053496	-3.003100	3.842600	-11.539000	22.299122	0.000462	20.704096
189.054482	-3.010800	3.843100	-11.569000	22.313032	0.000461	20.719448
190.053772	-3.014100	3.843600	-11.584000	22.295586	0.000461	20.718100
191.052418	-3.008400	3.841800	-11.557000	22.320455	0.000463	20.705069
192.056998	-3.004200	3.841400	-11.539000	22.316403	0.000461	20.705278
193.052990	-3.002500	3.842200	-11.536000	22.347028	0.000461	20.710815
194.055092	-2.999800	3.841900	-11.524000	22.350398	0.000461	20.706602
195.053067	-2.999800	3.841500	-11.522000	22.339679	0.000463	20.715784
196.052350	-2.971000	3.842100	-11.414000	22.345490	0.000464	20.709275
197.055713	-2.989400	3.842200	-11.485000	22.351345	0.000463	20.704231
198.054242	-2.990500	3.841700	-11.488000	22.363140	0.000464	20.709879
199.054456	-3.013500	3.840300	-11.572000	22.395067	0.000464	20.702495
200.053905	-2.998600	3.840400	-11.515000	22.392503	0.000464	20.704195
201.054698	-2.990600	3.839700	-11.482000	22.394292	0.000466	20.713574
202.054146	-2.991600	3.840700	-11.489000	22.382240	0.000465	20.703400
203.052159	-3.005100	3.840200	-11.539000	22.385130	0.000464	20.705821
204.053954	-2.965400	3.840200	-11.387000	22.399083	0.000467	20.714578
205.055385	-2.989300	3.840100	-11.478000	22.383906	0.000467	20.719769
206.053088	-2.990800	3.841300	-11.488000	22.417948	0.000468	20.715926
207.053685	-2.980900	3.840900	-11.448000	22.406037	0.000466	20.717749
208.054612	-3.015400	3.838400	-11.574000	22.413195	0.000466	20.715434
209.054477	-3.002700	3.838200	-11.523000	22.436371	0.000467	20.717306
210.055092	-3.018000	3.840300	-11.589000	22.408786	0.000467	20.722873
211.054294	-3.015500	3.840200	-11.579000	22.413952	0.000465	20.735159
212.054686	-3.008400	3.838000	-11.545000	22.443683	0.000468	20.715619
213.053526	-3.000000	3.838700	-11.515000	22.443886	0.000468	20.721987
214.052289	-2.991700	3.838900	-11.484000	22.446075	0.000470	20.718963
215.056494	-2.984000	3.840200	-11.458000	22.448270	0.000470	20.720213
216.058805	-3.002500	3.837700	-11.521000	22.467713	0.000470	20.707915
217.054896	-3.010000	3.837000	-11.549000	22.490740	0.000470	20.715330
218.056396	-3.015500	3.836900	-11.569000	22.517677	0.000471	20.730454
219.057938	-2.998700	3.836900	-11.505000	22.539375	0.000471	20.735590
220.057213	-3.014100	3.837300	-11.565000	22.547430	0.000472	20.717578
221.057845	-2.994600	3.837400	-11.491000	22.562463	0.000473	20.716987
222.058015	-2.999000	3.837900	-11.509000	22.540138	0.000473	20.710274
223.058083	-3.001300	3.835700	-11.511000	22.539087	0.000472	20.703056
224.061205	-2.985400	3.836700	-11.453000	22.534906	0.000471	20.725898
225.058842	-3.008500	3.835400	-11.538000	22.526980	0.000475	20.737401
226.063658	-2.994000	3.835900	-11.484000	22.566134	0.000473	20.714025
227.058886	-3.017800	3.834400	-11.571000	22.542315	0.000474	20.719093
228.058407	-3.003100	3.835300	-11.517000	22.542911	0.000474	20.742925
229.058909	-3.016600	3.834500	-11.566000	22.594170	0.000474	20.726458
230.060359	-2.998400	3.835800	-11.500000	22.587124	0.000474	20.732678
231.060297	-3.022800	3.833900	-11.588000	22.624917	0.000475	20.739237
232.062766	-2.997800	3.834200	-11.493000	22.612836	0.000474	20.718601
233.062247	-2.989800	3.834900	-11.464000	22.603497	0.000477	20.717307
234.061974	-3.003800	3.834200	-11.516000	22.609823	0.000475	20.726015
235.064807	-2.996700	3.833200	-11.486000	22.612713	0.000475	20.731280
236.062431	-3.016100	3.833600	-11.561000	22.624948	0.000478	20.728836
237.064272	-2.970100	3.834600	-11.388000	22.614760	0.000477	20.712467
238.063930	-3.003600	3.833000	-11.512000	22.632276	0.000476	20.737599
239.063217	-3.017600	3.833400	-11.566000	22.647947	0.000476	20.723423
240.063617	-2.978300	3.832900	-11.415000	22.664214	0.000477	20.752520
241.065058	-3.007300	3.833000	-11.526000	22.655718	0.000478	20.730258
242.067644	-3.020700	3.832900	-11.575000	22.682178	0.000477	20.750598
243.066181	-3.000500	3.831600	-11.496000	22.677377	0.000480	20.738202
244.064557	-3.000100	3.832300	-11.496000	22.684551	0.000478	20.722154
245.065316	-3.021600	3.833000	-11.581000	22.695279	0.000481	20.723416
246.067855	-3.002400	3.831600	-11.503000	22.708342	0.000478	20.742667
247.064474	-2.994900	3.832700	-11.478000	22.714693	0.000479	20.735277
248.065898	-2.983500	3.833100	-11.435000	22.741723	0.000480	20.738171
249.065085	-3.005600	3.831000	-11.514000	22.732484	0.000479	20.738874
250.064117	-2.992300	3.832200	-11.466000	22.710881	0.000479	20.737149
251.069739	-3.037600	3.829700	-11.631000	22.753059	0.000480	20.745259
252.064791	-3.017400	3.829800	-11.555000	22.769552	0.000482	20.732857
253.067860	-3.007100	3.829400	-11.514000	22.763749	0.000481	20.755020
254.064634	-2.988600	3.830000	-11.446000	22.738717	0.000480	20.738005
255.065924	-3.004000	3.831000	-11.508000	22.744668	0.000481	20.734483
256.066239	-2.986800	3.829900	-11.438000	22.752819	0.000481	20.733639
257.065402	-3.001800	3.829900	-11.496000	22.758622	0.000481	20.739453
258.068590	-2.995800	3.830700	-11.475000	22.776658	0.000482	20.752305
259.069137	-3.001100	3.828700	-11.489000	22.826234	0.000483	20.747440
260.066842	-2.982500	3.830200	-11.422000	22.834477	0.000483	20.747163
261.070203	-3.011600	3.828700	-11.530000	22.835202	0.000485	20.739354
262.067425	-2.992700	3.830000	-11.461000	22.821280	0.000485	20.735364
263.068001	-3.001300	3.829300	-11.492000	22.848855	0.000483	20.745445
264.069111	-2.991500	3.827900	-11.450000	22.852844	0.000484	20.740432
265.069464	-2.981600	3.829200	-11.416000	22.821249	0.000483	20.740075
266.067951	-2.972500	3.829100	-11.381000	22.824863	0.000485	20.742747
267.068298	-2.983900	3.827900	-11.421000	22.841983	0.000485	20.736189
268.069100	-2.987800	3.826900	-11.433000	22.841380	0.000486	20.765932
269.068976	-2.986900	3.828900	-11.435000	22.848314	0.000486	20.742058
270.069546	-2.972500	3.827200	-11.375000	22.868487	0.000485	20.736189
271.069026	-2.992300	3.827800	-11.453000	22.885630	0.000484	20.741036
272.069595	-2.977700	3.827500	-11.397000	22.897315	0.000486	20.753216
