LabVIEW Measurement	
Writer_Version	2
Reader_Version	2
Separator	Tab
Decimal_Separator	.
Multi_Headings	No
X_Columns	One
Time_Pref	Absolute
Operator	admin
Description	Clolumns are: time, Current, Voltage, Power, Battery Temp, and Chamber Temp
Date	2024/08/16
Time	13:07:17.8513970375061035156
***End_of_Header***	
	
Channels	6						
Samples	1	1	1	1	1	1	
Date	2024/09/11	2024/09/11	2024/09/11	2024/09/11	2024/09/11	2024/09/11	
Time	20:41:37.6243510246276855469	20:41:37.6304183006286621094	20:41:37.6353592872619628906	20:41:37.6032509803771972656	20:41:37.6032509803771972656	20:41:37.6032509803771972656	
X_Dimension	Time	Time	Time	Time	Time	Time	
X0	0.0000000000000000E+0	0.0000000000000000E+0	0.0000000000000000E+0	0.0000000000000000E+0	0.0000000000000000E+0	0.0000000000000000E+0	
Delta_X	1.000000	1.000000	1.000000	1.000000	1.000000	1.000000	
***End_of_Header***							
X_Value	Untitled	Untitled 1	Untitled 2	Untitled 3	Untitled 4	Untitled 5	Comment
0.000000	0.012095	4.089500	0.049466	20.779102	0.000465	20.769619
1.009943	-3.010600	3.919100	-11.798000	20.780149	0.000462	20.768769
1.996241	-3.008600	3.912800	-11.771000	20.778780	0.000464	20.782574
3.008728	-3.017400	3.909400	-11.796000	20.804302	0.000461	20.779646
3.997926	-3.028500	3.903800	-11.822000	20.816185	0.000462	20.769718
4.998754	-3.033600	3.901100	-11.833000	20.782669	0.000459	20.774608
6.010030	-3.041400	3.898300	-11.855000	20.805976	0.000460	20.758086
7.001958	-2.987700	3.898100	-11.646000	20.805778	0.000460	20.774010
8.010277	-2.988500	3.896600	-11.644000	20.821623	0.000460	20.756190
9.005342	-2.981100	3.893900	-11.607000	20.820180	0.000458	20.765178
9.999975	-2.991400	3.891900	-11.641000	20.834730	0.000458	20.784944
10.999245	-2.977100	3.891800	-11.584000	20.832009	0.000456	20.772266
11.999207	-3.013500	3.887800	-11.715000	20.861430	0.000456	20.768023
12.998711	-3.007500	3.888800	-11.694000	20.838721	0.000457	20.784194
13.999626	-3.022200	3.887200	-11.747000	20.846707	0.000456	20.777956
15.002725	-3.012900	3.886300	-11.708000	20.868744	0.000455	20.770596
16.001179	-2.976000	3.885100	-11.561000	20.859884	0.000456	20.771218
17.002554	-2.985100	3.884000	-11.593000	20.872438	0.000454	20.765281
18.009306	-3.001000	3.883000	-11.652000	20.892351	0.000455	20.769549
19.001839	-3.006900	3.881300	-11.670000	20.893047	0.000454	20.764081
20.004121	-3.001500	3.881300	-11.649000	20.909217	0.000456	20.775511
21.001681	-2.991600	3.880200	-11.606000	20.905725	0.000453	20.781976
22.007017	-3.007800	3.880300	-11.670000	20.927084	0.000451	20.764931
23.003383	-3.025200	3.878300	-11.732000	20.932069	0.000452	20.764226
24.003059	-2.990300	3.879400	-11.600000	20.958651	0.000452	20.773742
25.002113	-3.004200	3.877300	-11.647000	20.930428	0.000451	20.765904
26.007023	-3.001400	3.877600	-11.637000	20.961438	0.000449	20.759459
27.004802	-2.994800	3.876000	-11.607000	20.954751	0.000448	20.777902
28.003292	-3.025400	3.875100	-11.723000	20.967477	0.000450	20.769293
29.007994	-3.008700	3.874600	-11.656000	20.983196	0.000448	20.759884
30.006689	-3.026800	3.873600	-11.723000	20.992150	0.000448	20.760305
31.007629	-2.997900	3.875300	-11.617000	20.975858	0.000450	20.767718
32.004731	-3.024400	3.874000	-11.715000	21.010342	0.000447	20.739618
33.005768	-3.004900	3.873400	-11.638000	20.995893	0.000447	20.770687
34.017220	-3.001000	3.873400	-11.623000	21.008738	0.000447	20.762671
35.016372	-3.003400	3.873300	-11.633000	21.038682	0.000447	20.761327
36.021584	-3.007500	3.872500	-11.646000	21.050332	0.000446	20.765393
37.008383	-3.020000	3.871700	-11.692000	21.047933	0.000447	20.760148
38.010894	-3.017200	3.871600	-11.681000	21.048106	0.000449	20.747519
39.009972	-3.021000	3.870600	-11.693000	21.061956	0.000446	20.762795
40.006423	-3.014000	3.870500	-11.665000	21.074079	0.000446	20.751213
41.010498	-3.012400	3.869300	-11.654000	21.094661	0.000445	20.776068
42.010076	-3.006900	3.868200	-11.631000	21.110873	0.000448	20.746764
43.017079	-2.993900	3.871000	-11.588000	21.114368	0.000445	20.757847
44.009566	-3.044800	3.868800	-11.778000	21.121157	0.000446	20.762742
45.011884	-2.999200	3.869600	-11.604000	21.118857	0.000445	20.759967
46.008769	-2.977900	3.869800	-11.523000	21.129632	0.000446	20.756994
47.012358	-3.019500	3.868500	-11.681000	21.155228	0.000444	20.751304
48.016265	-3.015900	3.867100	-11.662000	21.143205	0.000444	20.735483
49.011827	-3.000700	3.868000	-11.605000	21.162611	0.000445	20.754421
50.012651	-3.013300	3.868400	-11.656000	21.172268	0.000443	20.770720
51.023495	-3.006200	3.868200	-11.627000	21.193919	0.000444	20.765826
52.014309	-2.990200	3.867200	-11.563000	21.195164	0.000443	20.763752
53.017618	-2.999800	3.866000	-11.596000	21.202076	0.000442	20.749329
54.012527	-3.031300	3.866200	-11.718000	21.219436	0.000445	20.748203
55.024013	-2.983300	3.866900	-11.535000	21.209256	0.000444	20.749873
56.012550	-3.014500	3.864300	-11.648000	21.215916	0.000444	20.759382
57.017092	-2.978000	3.866100	-11.512000	21.216259	0.000444	20.747396
58.016509	-2.991600	3.865800	-11.564000	21.242331	0.000445	20.762573
59.013823	-3.007300	3.866400	-11.625000	21.247244	0.000443	20.768910
60.014061	-3.004200	3.866000	-11.612000	21.261488	0.000443	20.766564
61.013803	-3.008600	3.866100	-11.630000	21.260112	0.000444	20.770877
62.015766	-3.009800	3.865400	-11.633000	21.282561	0.000444	20.743549
63.015553	-2.991600	3.865200	-11.562000	21.282260	0.000444	20.763163
64.013560	-3.008300	3.864400	-11.624000	21.297052	0.000443	20.758520
65.020882	-3.001500	3.863200	-11.595000	21.321622	0.000443	20.757498
66.016630	-2.991300	3.864800	-11.559000	21.321495	0.000444	20.752154
67.024118	-2.995200	3.864200	-11.574000	21.301861	0.000444	20.738675
68.020668	-2.976600	3.864700	-11.503000	21.322591	0.000443	20.757518
69.017408	-2.978900	3.864500	-11.509000	21.321742	0.000442	20.782748
70.023531	-2.995600	3.863500	-11.572000	21.343094	0.000444	20.759539
71.017664	-3.005500	3.863600	-11.611000	21.360873	0.000442	20.755515
72.017078	-2.999500	3.861800	-11.583000	21.352643	0.000444	20.757712
73.017527	-2.990800	3.862100	-11.549000	21.390804	0.000442	20.756537
74.020534	-3.005900	3.862500	-11.609000	21.390902	0.000444	20.746679
75.018732	-2.997700	3.862200	-11.577000	21.384095	0.000442	20.756937
76.022882	-2.993400	3.862800	-11.562000	21.393474	0.000443	20.758261
77.019748	-2.998300	3.862800	-11.580000	21.397690	0.000443	20.762005
78.019739	-3.010100	3.860600	-11.620000	21.428444	0.000442	20.753420
79.021239	-3.002100	3.862400	-11.594000	21.426223	0.000445	20.759733
80.023383	-3.008400	3.862000	-11.618000	21.434934	0.000443	20.753276
81.019464	-2.992200	3.862200	-11.555000	21.428547	0.000444	20.751152
82.020743	-3.000200	3.862200	-11.586000	21.455109	0.000445	20.772040
83.022964	-3.000900	3.861200	-11.586000	21.476961	0.000442	20.748385
84.021347	-3.007200	3.860900	-11.609000	21.472194	0.000444	20.741718
85.022651	-3.019700	3.860000	-11.655000	21.472845	0.000444	20.776036
86.021813	-3.019600	3.859600	-11.653000	21.505088	0.000446	20.754245
87.023360	-3.011500	3.859200	-11.621000	21.501528	0.000444	20.744044
88.027921	-3.008100	3.860200	-11.611000	21.522897	0.000445	20.780126
89.023666	-3.020600	3.858400	-11.654000	21.484069	0.000444	20.759766
90.028997	-3.011200	3.859600	-11.621000	21.535143	0.000446	20.766775
91.024535	-3.005100	3.859800	-11.598000	21.545222	0.000446	20.774489
92.024451	-2.998300	3.859200	-11.571000	21.541307	0.000445	20.750183
93.024923	-2.990800	3.858300	-11.537000	21.554999	0.000445	20.763410
94.024809	-2.993400	3.859300	-11.551000	21.580109	0.000446	20.770519
95.033223	-2.978900	3.859300	-11.495000	21.587492	0.000445	20.751828
96.030262	-2.994700	3.858400	-11.554000	21.572927	0.000447	20.758590
97.025866	-2.997900	3.857500	-11.563000	21.585049	0.000447	20.757444
98.026705	-2.975400	3.859500	-11.482000	21.602877	0.000445	20.771966
99.028728	-2.999000	3.858100	-11.570000	21.612626	0.000447	20.763703
100.033623	-3.001100	3.858700	-11.579000	21.613202	0.000449	20.790834
101.029126	-2.988300	3.857900	-11.528000	21.620157	0.000447	20.772663
102.028563	-2.981700	3.858000	-11.502000	21.630705	0.000448	20.782744
103.027632	-2.998200	3.856900	-11.563000	21.639106	0.000446	20.766969
104.033444	-3.002100	3.857300	-11.579000	21.639856	0.000448	20.766771
105.030074	-2.993200	3.857000	-11.543000	21.645442	0.000451	20.759085
106.031291	-3.005000	3.856400	-11.587000	21.661078	0.000447	20.760982
107.029711	-3.012700	3.857300	-11.620000	21.691524	0.000449	20.772960
108.031469	-3.018900	3.855800	-11.639000	21.713248	0.000449	20.759613
109.032072	-2.989500	3.856400	-11.526000	21.703249	0.000448	20.787539
110.029995	-3.005200	3.855600	-11.586000	21.699187	0.000448	20.775887
111.039484	-2.996500	3.857400	-11.558000	21.696093	0.000447	20.757617
112.030096	-3.007800	3.855600	-11.596000	21.713075	0.000448	20.762759
113.033260	-3.002600	3.855800	-11.576000	21.706195	0.000448	20.767727
114.031184	-3.003800	3.855400	-11.580000	21.730810	0.000449	20.762965
115.032301	-3.019600	3.855200	-11.640000	21.749736	0.000450	20.778588
116.031461	-3.008000	3.855400	-11.595000	21.775397	0.000451	20.784830
117.034545	-3.006900	3.855200	-11.591000	21.758239	0.000448	20.770976
118.031221	-2.991700	3.855600	-11.533000	21.787245	0.000449	20.781515
119.032772	-2.997800	3.856000	-11.558000	21.766697	0.000450	20.775648
120.032629	-3.033700	3.853700	-11.690000	21.788320	0.000450	20.782591
121.032739	-2.993400	3.855000	-11.539000	21.787154	0.000451	20.773363
122.034859	-3.030100	3.853000	-11.673000	21.812633	0.000449	20.770415
123.031513	-2.991900	3.852800	-11.526000	21.807748	0.000452	20.754145
124.033759	-3.024800	3.854300	-11.657000	21.815080	0.000451	20.778554
125.043475	-3.011700	3.853400	-11.603000	21.811294	0.000452	20.782826
126.032224	-2.989000	3.853700	-11.518000	21.846050	0.000452	20.786792
127.033986	-3.001700	3.854800	-11.570000	21.864854	0.000452	20.769104
128.031949	-3.003600	3.853300	-11.573000	21.835908	0.000451	20.774744
129.032606	-2.997200	3.854000	-11.550000	21.863408	0.000453	20.780933
130.032413	-2.993600	3.853400	-11.535000	21.876874	0.000454	20.783980
131.031122	-2.995100	3.853200	-11.540000	21.883353	0.000451	20.784776
132.032066	-2.998100	3.852500	-11.550000	21.895649	0.000453	20.767211
133.035192	-2.992500	3.852500	-11.528000	21.883506	0.000454	20.792041
134.032523	-3.004600	3.852100	-11.573000	21.912801	0.000453	20.770155
135.033393	-2.995000	3.852600	-11.538000	21.916916	0.000453	20.792766
136.035981	-3.003300	3.851500	-11.565000	21.929953	0.000452	20.797755
137.034964	-2.989900	3.852400	-11.517000	21.920582	0.000455	20.754709
138.036007	-3.005500	3.851300	-11.575000	21.945634	0.000453	20.785477
139.034571	-3.013300	3.850500	-11.601000	21.935736	0.000455	20.797380
140.033940	-2.998800	3.851900	-11.550000	21.946927	0.000454	20.785823
141.034947	-3.016600	3.851200	-11.616000	21.966076	0.000454	20.782232
142.036583	-3.017100	3.850500	-11.615000	21.969767	0.000454	20.782133
143.044222	-3.004800	3.851000	-11.570000	21.983977	0.000456	20.786874
144.037744	-3.018200	3.849300	-11.618000	21.997536	0.000457	20.793809
145.037563	-2.993100	3.851300	-11.527000	21.992276	0.000456	20.798502
146.036855	-2.977800	3.849600	-11.462000	22.002997	0.000457	20.803544
147.044565	-3.002200	3.850700	-11.559000	22.022042	0.000458	20.797005
148.046350	-3.003300	3.849600	-11.560000	22.023961	0.000457	20.784227
149.040165	-3.027200	3.849100	-11.651000	22.017582	0.000457	20.792065
150.038599	-3.016500	3.847800	-11.606000	22.050638	0.000457	20.801449
151.039015	-2.998500	3.848900	-11.540000	22.081201	0.000459	20.803123
152.041978	-2.988400	3.849500	-11.503000	22.069233	0.000458	20.794461
153.040210	-2.972900	3.850000	-11.444000	22.080077	0.000459	20.810058
154.043874	-2.987600	3.848500	-11.497000	22.080728	0.000458	20.790795
155.042399	-2.984500	3.849600	-11.488000	22.070658	0.000458	20.790672
156.040922	-3.014200	3.847600	-11.597000	22.092045	0.000460	20.790746
157.041807	-2.991400	3.848100	-11.510000	22.109347	0.000457	20.794791
158.041776	-2.996400	3.848600	-11.530000	22.123011	0.000458	20.803729
159.041381	-2.989700	3.848200	-11.503000	22.132455	0.000460	20.796588
160.046814	-2.999100	3.847300	-11.536000	22.136445	0.000459	20.808644
161.042146	-2.986600	3.848300	-11.493000	22.154475	0.000460	20.806306
162.043060	-3.000200	3.847300	-11.542000	22.139064	0.000460	20.812214
163.043994	-2.995700	3.848000	-11.527000	22.159832	0.000462	20.800765
164.043129	-3.011500	3.845400	-11.580000	22.159087	0.000462	20.796699
165.045746	-2.993000	3.847800	-11.516000	22.149520	0.000458	20.792811
166.043070	-2.990200	3.847700	-11.504000	22.181350	0.000460	20.814721
167.042941	-3.000500	3.847200	-11.542000	22.177437	0.000461	20.800847
168.046402	-3.010000	3.846100	-11.576000	22.191501	0.000463	20.808763
169.045669	-2.990100	3.846500	-11.501000	22.187613	0.000462	20.791121
170.046212	-3.000300	3.845800	-11.538000	22.172187	0.000461	20.825461
171.046452	-3.009800	3.846500	-11.576000	22.196216	0.000465	20.810165
172.044507	-2.996000	3.846300	-11.523000	22.195021	0.000464	20.805176
173.050080	-3.009500	3.845800	-11.573000	22.193028	0.000465	20.817405
174.048516	-2.995600	3.845100	-11.518000	22.212095	0.000465	20.794769
175.045106	-3.009300	3.844500	-11.569000	22.212074	0.000466	20.790481
176.047166	-3.004700	3.844700	-11.551000	22.213470	0.000464	20.807052
177.049203	-3.033100	3.843400	-11.655000	22.245524	0.000466	20.798843
178.046340	-2.992400	3.846100	-11.508000	22.237700	0.000464	20.814717
179.051555	-2.984400	3.845500	-11.475000	22.245005	0.000467	20.814919
180.046974	-2.974500	3.844500	-11.435000	22.255996	0.000468	20.815966
181.052121	-2.979300	3.843600	-11.450000	22.251165	0.000465	20.813026
182.048868	-2.964000	3.845800	-11.398000	22.273719	0.000467	20.805737
183.046613	-2.991300	3.843300	-11.495000	22.290494	0.000468	20.787447
184.049822	-3.001000	3.843700	-11.534000	22.331267	0.000468	20.815945
185.049758	-3.003800	3.842900	-11.542000	22.308192	0.000468	20.819392
186.048343	-2.997600	3.843200	-11.519000	22.337666	0.000470	20.819033
187.052743	-2.992800	3.842500	-11.499000	22.347569	0.000469	20.828475
188.049768	-3.006700	3.841900	-11.550000	22.357389	0.000468	20.821239
189.051590	-3.004400	3.842300	-11.543000	22.342784	0.000470	20.808511
190.052747	-3.012000	3.841200	-11.569000	22.350681	0.000470	20.819264
191.053183	-3.020600	3.840700	-11.600000	22.361527	0.000470	20.819219
192.054824	-3.017600	3.841700	-11.592000	22.374983	0.000468	20.832693
193.051665	-3.015100	3.841500	-11.582000	22.367555	0.000470	20.791116
194.051027	-3.002900	3.841700	-11.536000	22.383053	0.000470	20.813748
195.051461	-3.004100	3.841100	-11.538000	22.402495	0.000473	20.810932
196.052015	-3.009600	3.841700	-11.561000	22.378820	0.000472	20.828949
197.055259	-2.975700	3.841400	-11.430000	22.379191	0.000474	20.809406
198.054753	-2.999500	3.839800	-11.517000	22.403137	0.000471	20.834808
199.053344	-3.011500	3.839000	-11.560000	22.410787	0.000471	20.806433
200.054620	-2.979900	3.840200	-11.443000	22.418684	0.000472	20.836152
201.056366	-3.006300	3.840800	-11.546000	22.425868	0.000470	20.822010
202.054440	-2.990300	3.840600	-11.483000	22.418886	0.000471	20.819285
203.057146	-3.003100	3.839200	-11.528000	22.437355	0.000473	20.833039
204.053535	-3.003700	3.840100	-11.533000	22.461750	0.000474	20.830442
205.053368	-2.984800	3.840300	-11.462000	22.462672	0.000473	20.831365
206.054949	-3.020400	3.838200	-11.592000	22.463820	0.000474	20.824929
207.054290	-2.993100	3.839500	-11.492000	22.493076	0.000472	20.841425
208.056192	-2.998300	3.839700	-11.512000	22.520635	0.000476	20.847214
209.056848	-3.022500	3.838200	-11.598000	22.524122	0.000477	20.826999
210.062859	-2.993100	3.837900	-11.486000	22.529008	0.000474	20.829048
211.058434	-2.999200	3.839300	-11.513000	22.518272	0.000474	20.837735
212.056383	-3.018800	3.837600	-11.583000	22.520470	0.000475	20.831402
213.058642	-3.015300	3.837700	-11.571000	22.530387	0.000476	20.841334
214.061143	-2.989900	3.839000	-11.477000	22.543845	0.000477	20.840114
215.058403	-3.004800	3.837200	-11.530000	22.562436	0.000476	20.841664
216.058833	-2.997900	3.836200	-11.500000	22.577038	0.000475	20.846805
217.059198	-2.986100	3.837200	-11.457000	22.560094	0.000479	20.845482
218.057365	-2.976400	3.838000	-11.423000	22.557752	0.000478	20.831757
219.062416	-2.996600	3.836900	-11.496000	22.563462	0.000480	20.818035
220.064650	-3.004500	3.836300	-11.525000	22.587182	0.000479	20.848904
221.059223	-3.023400	3.835000	-11.594000	22.623737	0.000478	20.825300
222.059360	-3.008300	3.835600	-11.537000	22.621045	0.000477	20.811224
223.058938	-3.014700	3.835100	-11.561000	22.623412	0.000479	20.843940
224.063146	-2.998700	3.834700	-11.497000	22.607217	0.000480	20.856168
225.062761	-3.012000	3.835300	-11.550000	22.629471	0.000481	20.843371
226.061793	-3.000900	3.836200	-11.511000	22.617089	0.000480	20.846142
227.061667	-2.993600	3.834900	-11.479000	22.623342	0.000481	20.841025
228.065139	-3.000200	3.835000	-11.505000	22.646587	0.000480	20.865255
229.061431	-2.998700	3.835100	-11.498000	22.669211	0.000480	20.853303
230.068162	-2.993800	3.834300	-11.477000	22.661069	0.000483	20.857949
231.066327	-2.993300	3.834200	-11.475000	22.713959	0.000483	20.858770
232.063501	-2.994600	3.835200	-11.484000	22.713312	0.000482	20.855752
233.067866	-3.009600	3.833000	-11.535000	22.732946	0.000483	20.846970
234.065779	-3.005600	3.833400	-11.521000	22.730551	0.000482	20.847415
235.067118	-3.003900	3.834000	-11.517000	22.707109	0.000484	20.854280
236.065169	-3.015200	3.833600	-11.558000	22.696794	0.000484	20.862913
237.065609	-2.997700	3.832200	-11.487000	22.725768	0.000484	20.858271
238.065739	-2.979200	3.832700	-11.417000	22.730501	0.000485	20.848314
239.072659	-3.015900	3.832400	-11.557000	22.754914	0.000484	20.852854
240.067710	-3.004200	3.831900	-11.511000	22.729131	0.000485	20.842200
241.069323	-3.003500	3.831800	-11.507000	22.735700	0.000485	20.854944
242.066641	-2.999000	3.831500	-11.490000	22.738466	0.000485	20.873361
243.069970	-2.997200	3.832000	-11.485000	22.745611	0.000485	20.850648
244.067403	-2.988700	3.832500	-11.453000	22.749472	0.000487	20.862101
245.070824	-3.010200	3.831000	-11.532000	22.765344	0.000486	20.862353
246.071723	-3.007000	3.830700	-11.517000	22.761676	0.000489	20.854886
247.067191	-3.017000	3.830300	-11.555000	22.778593	0.000486	20.883210
248.066391	-3.019000	3.830300	-11.563000	22.786915	0.000487	20.864995
249.072371	-2.998300	3.830200	-11.484000	22.807042	0.000488	20.892742
250.067015	-2.990900	3.830400	-11.455000	22.818225	0.000488	20.865540
251.073531	-2.999900	3.830900	-11.491000	22.838227	0.000490	20.884628
252.068083	-2.999500	3.829300	-11.485000	22.867193	0.000489	20.883775
253.069794	-3.007900	3.830200	-11.520000	22.859748	0.000491	20.878687
254.066247	-3.003100	3.829100	-11.498000	22.865530	0.000490	20.876420
255.066983	-3.020600	3.829100	-11.566000	22.863831	0.000490	20.878984
256.075460	-3.010400	3.829600	-11.527000	22.870062	0.000491	20.872425
257.068753	-3.001300	3.830000	-11.494000	22.876988	0.000490	20.870829
258.067938	-3.025100	3.828700	-11.582000	22.912785	0.000489	20.872078
259.068043	-3.012800	3.828900	-11.535000	22.914723	0.000491	20.897252
260.067203	-2.999800	3.827800	-11.481000	22.904587	0.000490	20.890417
261.070138	-2.985600	3.828700	-11.430000	22.881849	0.000491	20.883758
262.071297	-2.988600	3.828500	-11.441000	22.875618	0.000493	20.886999
263.068319	-3.001200	3.828700	-11.489000	22.889117	0.000491	20.887720
264.069253	-2.980800	3.828400	-11.411000	22.913554	0.000494	20.877117
265.070803	-3.008000	3.826600	-11.509000	22.936049	0.000494	20.877842
266.070497	-3.002300	3.826700	-11.488000	22.943646	0.000493	20.900150
267.072501	-2.995900	3.827500	-11.465000	22.943428	0.000494	20.889027
268.069171	-3.011700	3.827200	-11.526000	22.951473	0.000495	20.904673
269.069226	-3.003300	3.825100	-11.487000	22.968584	0.000493	20.884834
270.070864	-3.006500	3.826800	-11.505000	22.975165	0.000495	20.891901
271.071851	-3.003000	3.826300	-11.490000	22.983584	0.000494	20.899862
272.071610	-2.977300	3.827600	-11.396000	22.967494	0.000495	20.888009
