LabVIEW Measurement	
Writer_Version	2
Reader_Version	2
Separator	Tab
Decimal_Separator	.
Multi_Headings	No
X_Columns	One
Time_Pref	Absolute
Operator	admin
Description	Clolumns are: time, Current, Voltage, Power, Battery Temp, and Chamber Temp
Date	2024/08/16
Time	13:07:17.8513970375061035156
***End_of_Header***	
	
Channels	6						
Samples	1	1	1	1	1	1	
Date	2024/09/01	2024/09/01	2024/09/01	2024/09/01	2024/09/01	2024/09/01	
Time	18:14:55.9186048507690429688	18:14:55.9234094619750976563	18:14:55.92840576171875	18:14:55.9035558700561523438	18:14:55.9035558700561523438	18:14:55.9035558700561523438	
X_Dimension	Time	Time	Time	Time	Time	Time	
X0	0.0000000000000000E+0	0.0000000000000000E+0	0.0000000000000000E+0	0.0000000000000000E+0	0.0000000000000000E+0	0.0000000000000000E+0	
Delta_X	1.000000	1.000000	1.000000	1.000000	1.000000	1.000000	
***End_of_Header***							
X_Value	Untitled	Untitled 1	Untitled 2	Untitled 3	Untitled 4	Untitled 5	Comment
0.000000	0.017925	4.087000	0.073270	20.771093	0.000458	20.700440
1.003958	-3.001900	3.924500	-11.781000	20.769646	0.000457	20.680973
2.001587	-2.975700	3.919900	-11.663000	20.785816	0.000457	20.682445
3.000146	-2.994400	3.916000	-11.725000	20.797997	0.000457	20.701266
4.004011	-2.983900	3.912100	-11.673000	20.803637	0.000456	20.705958
5.000506	-3.007600	3.909300	-11.757000	20.786502	0.000453	20.707789
6.003238	-3.003600	3.907700	-11.737000	20.802001	0.000454	20.701003
7.002086	-2.984000	3.904400	-11.650000	20.815752	0.000450	20.704322
8.001674	-2.990400	3.903300	-11.672000	20.807364	0.000452	20.696882
9.001493	-3.007300	3.901000	-11.731000	20.829133	0.000451	20.690676
10.001907	-2.998900	3.898800	-11.691000	20.807224	0.000452	20.704329
11.001448	-2.971100	3.899700	-11.585000	20.847657	0.000452	20.676956
12.003178	-3.010600	3.895600	-11.728000	20.837830	0.000449	20.715022
12.998956	-2.996300	3.896200	-11.673000	20.847910	0.000451	20.709455
14.002274	-3.001400	3.895700	-11.691000	20.842399	0.000448	20.701099
15.007910	-2.994800	3.895300	-11.664000	20.849462	0.000449	20.686349
16.020325	-2.990900	3.892200	-11.639000	20.866391	0.000450	20.704229
17.031347	-3.008600	3.891400	-11.707000	20.873134	0.000447	20.683944
18.025063	-3.034100	3.890200	-11.802000	20.884285	0.000448	20.702683
19.027006	-3.009300	3.888700	-11.702000	20.888871	0.000448	20.702054
20.020166	-2.992200	3.889000	-11.636000	20.901311	0.000446	20.692209
21.028318	-3.000100	3.888900	-11.667000	20.917055	0.000445	20.696101
22.032641	-2.999900	3.887500	-11.661000	20.922073	0.000447	20.702543
23.026501	-2.985100	3.887700	-11.604000	20.919433	0.000447	20.697057
24.019745	-2.977100	3.887100	-11.572000	20.925947	0.000446	20.717324
25.023352	-2.994400	3.886200	-11.636000	20.933076	0.000445	20.718290
26.022965	-3.010800	3.885400	-11.697000	20.937645	0.000447	20.707212
27.028337	-3.017100	3.885100	-11.720000	20.958562	0.000443	20.698733
28.034838	-2.959800	3.884800	-11.497000	20.960785	0.000443	20.705698
29.008354	-2.982700	3.885300	-11.587000	20.965599	0.000445	20.739439
30.031175	-3.022500	3.883400	-11.737000	20.975931	0.000446	20.726538
31.025556	-2.984500	3.883300	-11.589000	20.975555	0.000442	20.710514
32.025817	-3.000100	3.882400	-11.646000	20.997591	0.000442	20.696042
33.012591	-3.017400	3.882100	-11.713000	21.007367	0.000444	20.723366
34.026582	-3.006500	3.881600	-11.668000	21.012083	0.000441	20.703900
35.029452	-3.009800	3.880500	-11.679000	21.034445	0.000443	20.703507
36.009851	-2.971800	3.882200	-11.536000	21.039431	0.000442	20.721297
37.007908	-3.004000	3.880300	-11.656000	21.041229	0.000443	20.704128
38.038834	-2.965800	3.881100	-11.509000	21.055809	0.000443	20.695003
39.026962	-2.993100	3.879100	-11.609000	21.055360	0.000443	20.698347
40.010891	-3.000000	3.878900	-11.636000	21.073415	0.000442	20.721624
41.036319	-2.979200	3.878500	-11.554000	21.075221	0.000441	20.717740
42.014969	-2.995700	3.877100	-11.614000	21.075596	0.000442	20.697725
43.037042	-3.016800	3.878400	-11.699000	21.089540	0.000443	20.712622
44.030653	-2.997300	3.878800	-11.626000	21.100222	0.000443	20.716194
45.012072	-2.983400	3.878700	-11.571000	21.097549	0.000442	20.728221
46.012686	-2.992900	3.876100	-11.600000	21.112767	0.000442	20.701241
47.037522	-2.974300	3.878300	-11.533000	21.118913	0.000440	20.720192
48.036312	-2.980000	3.877600	-11.554000	21.124053	0.000440	20.723911
49.037154	-2.993700	3.875300	-11.601000	21.139499	0.000440	20.718025
50.035821	-2.998800	3.875100	-11.620000	21.133909	0.000442	20.707217
51.036330	-2.983600	3.877100	-11.565000	21.150345	0.000440	20.733142
52.015400	-2.992700	3.876600	-11.600000	21.166616	0.000440	20.724762
53.031162	-2.985900	3.874600	-11.568000	21.157259	0.000440	20.740532
54.040551	-3.004300	3.875400	-11.642000	21.191615	0.000440	20.720845
55.037367	-3.001800	3.875700	-11.632000	21.197401	0.000439	20.740859
56.014967	-3.013400	3.874600	-11.675000	21.199508	0.000441	20.735854
57.013802	-3.005800	3.873800	-11.643000	21.197433	0.000440	20.730459
58.017815	-2.995800	3.875400	-11.609000	21.226297	0.000441	20.732781
59.035806	-2.989700	3.873800	-11.580000	21.239716	0.000440	20.736248
60.036931	-3.004900	3.873200	-11.638000	21.246482	0.000440	20.722152
61.017946	-2.974400	3.874600	-11.524000	21.239168	0.000440	20.732380
62.016186	-2.980700	3.873300	-11.544000	21.241946	0.000439	20.728047
63.039200	-3.008800	3.872000	-11.649000	21.254718	0.000440	20.722332
64.036921	-3.012500	3.871500	-11.662000	21.273856	0.000438	20.741004
65.038277	-3.017700	3.873100	-11.687000	21.267368	0.000440	20.720288
66.037941	-2.988100	3.873300	-11.573000	21.297979	0.000440	20.733842
67.043714	-2.994000	3.873400	-11.597000	21.288956	0.000441	20.710116
68.039420	-3.016600	3.871600	-11.678000	21.314665	0.000439	20.726828
69.040136	-3.007000	3.872900	-11.645000	21.337659	0.000441	20.750308
70.036530	-2.995400	3.872300	-11.599000	21.326847	0.000439	20.738068
71.035933	-3.000100	3.872000	-11.615000	21.323162	0.000441	20.722052
72.043613	-2.990800	3.871100	-11.576000	21.334512	0.000438	20.737675
73.039845	-3.001200	3.870800	-11.616000	21.335410	0.000438	20.745213
74.045639	-3.003300	3.872700	-11.630000	21.332950	0.000440	20.732794
75.047915	-2.997200	3.870000	-11.597000	21.347430	0.000440	20.752972
76.024277	-2.983200	3.871200	-11.548000	21.363102	0.000440	20.722656
77.022827	-3.012000	3.869300	-11.653000	21.375979	0.000439	20.730799
78.022354	-2.993600	3.869400	-11.583000	21.370692	0.000441	20.768659
79.025104	-3.000000	3.870300	-11.610000	21.387451	0.000439	20.739906
80.024385	-3.025900	3.870200	-11.709000	21.410329	0.000441	20.755684
81.025681	-3.012600	3.870300	-11.658000	21.404306	0.000441	20.740174
82.026132	-2.994000	3.869500	-11.585000	21.424578	0.000443	20.741017
83.056730	-3.019100	3.868000	-11.677000	21.415198	0.000440	20.735425
84.049459	-2.987400	3.869900	-11.560000	21.428492	0.000441	20.737820
85.026971	-3.013800	3.868200	-11.657000	21.442070	0.000439	20.737656
86.030566	-3.008100	3.867800	-11.634000	21.424666	0.000440	20.734941
87.030564	-3.035400	3.866700	-11.735000	21.427780	0.000442	20.746592
88.027771	-2.989800	3.869400	-11.568000	21.464245	0.000440	20.738506
89.058609	-3.003900	3.868800	-11.620000	21.486941	0.000438	20.749837
90.045939	-3.008200	3.868100	-11.634000	21.500789	0.000440	20.730027
91.051254	-3.006900	3.868800	-11.631000	21.494253	0.000440	20.758576
92.045497	-3.011700	3.868200	-11.649000	21.495707	0.000442	20.759082
93.046818	-3.023600	3.866900	-11.692000	21.509628	0.000443	20.758788
94.065314	-3.019100	3.867100	-11.673000	21.516344	0.000442	20.753653
95.050132	-2.985800	3.868100	-11.548000	21.534546	0.000444	20.735831
96.062778	-3.006800	3.867600	-11.628000	21.530633	0.000444	20.760365
97.038405	-3.010300	3.867800	-11.642000	21.556270	0.000442	20.735757
98.034609	-3.009200	3.866500	-11.634000	21.531809	0.000443	20.760119
99.035873	-2.993100	3.866800	-11.573000	21.555256	0.000443	20.745174
100.034300	-3.013300	3.865900	-11.648000	21.581945	0.000443	20.734423
101.034486	-3.014800	3.865200	-11.651000	21.555509	0.000442	20.750643
102.056539	-2.995800	3.866100	-11.581000	21.595065	0.000445	20.766045
103.069654	-2.991000	3.867200	-11.565000	21.616102	0.000444	20.755803
104.058209	-3.000300	3.866800	-11.601000	21.610800	0.000443	20.773256
105.058261	-2.997500	3.864800	-11.584000	21.613896	0.000445	20.762603
106.063365	-3.014200	3.865900	-11.651000	21.643314	0.000444	20.752687
107.055252	-2.969800	3.866300	-11.481000	21.620954	0.000444	20.780098
108.061100	-2.999900	3.865600	-11.596000	21.638477	0.000444	20.766340
109.037217	-3.003800	3.865000	-11.608000	21.655468	0.000445	20.765800
110.061343	-3.018300	3.864600	-11.664000	21.669093	0.000446	20.746243
111.057065	-2.984500	3.864600	-11.533000	21.667460	0.000446	20.766895
112.068326	-3.007200	3.865200	-11.623000	21.678930	0.000446	20.770787
113.065029	-2.999100	3.863800	-11.587000	21.667917	0.000446	20.759766
114.056118	-2.989900	3.865200	-11.556000	21.685636	0.000447	20.782715
115.064586	-2.994800	3.864300	-11.573000	21.711253	0.000445	20.767574
116.057806	-2.983500	3.864400	-11.529000	21.712078	0.000447	20.779779
117.063658	-3.012600	3.863600	-11.638000	21.706336	0.000447	20.776877
118.060454	-2.998000	3.864100	-11.583000	21.719781	0.000450	20.781798
119.044101	-2.997000	3.863700	-11.579000	21.752846	0.000448	20.782649
120.038673	-2.993300	3.862700	-11.561000	21.726013	0.000449	20.771441
121.059787	-3.004200	3.863600	-11.606000	21.733095	0.000449	20.763829
122.062087	-3.001300	3.863600	-11.595000	21.770000	0.000448	20.787963
123.061475	-2.991800	3.863500	-11.558000	21.744188	0.000450	20.761655
124.061342	-3.006600	3.862500	-11.612000	21.781296	0.000449	20.795475
125.041459	-2.990000	3.862300	-11.547000	21.801397	0.000452	20.761540
126.041389	-3.002100	3.863000	-11.596000	21.787251	0.000451	20.765873
127.042142	-3.005800	3.862500	-11.608000	21.799446	0.000450	20.780450
128.041625	-2.996200	3.861900	-11.569000	21.811910	0.000450	20.773485
129.058862	-2.992200	3.860300	-11.550000	21.811117	0.000452	20.777907
130.060949	-2.986100	3.862600	-11.533000	21.839681	0.000451	20.779943
131.059609	-3.019700	3.860700	-11.657000	21.821181	0.000452	20.767591
132.044032	-2.962400	3.863600	-11.444000	21.856440	0.000452	20.791977
133.041853	-2.994400	3.860700	-11.559000	21.864771	0.000452	20.785616
134.044737	-2.996700	3.861900	-11.572000	21.871052	0.000452	20.793326
135.040854	-3.002900	3.861200	-11.594000	21.892337	0.000453	20.776698
136.069954	-2.984200	3.860300	-11.518000	21.892467	0.000450	20.779199
137.065552	-2.984900	3.860500	-11.522000	21.897702	0.000453	20.800087
138.059686	-2.993000	3.860200	-11.553000	21.894077	0.000451	20.784130
139.063270	-2.995400	3.860700	-11.563000	21.909766	0.000452	20.805049
140.044765	-3.016500	3.859900	-11.642000	21.913597	0.000453	20.793237
141.048315	-3.004400	3.860300	-11.597000	21.931923	0.000453	20.794038
142.045298	-2.985500	3.860800	-11.525000	21.935436	0.000455	20.792338
143.064048	-3.005800	3.859200	-11.599000	21.925660	0.000453	20.785397
144.062135	-3.007600	3.858900	-11.604000	21.935853	0.000455	20.785643
145.047755	-2.990300	3.859200	-11.540000	21.944502	0.000453	20.776757
146.061508	-3.002500	3.858300	-11.584000	21.966536	0.000454	20.802133
147.046113	-2.974700	3.859500	-11.479000	21.974964	0.000455	20.797767
148.066192	-3.006600	3.858700	-11.601000	21.973045	0.000455	20.802484
149.070930	-3.001200	3.857600	-11.577000	21.968676	0.000456	20.798111
150.047161	-3.003100	3.858500	-11.586000	21.990342	0.000457	20.811738
151.064565	-2.992500	3.858700	-11.546000	22.002552	0.000456	20.798831
152.063586	-2.995300	3.859500	-11.560000	22.001391	0.000456	20.816161
153.079352	-2.976500	3.858000	-11.482000	22.028357	0.000459	20.787679
154.071184	-3.019800	3.855700	-11.643000	22.016761	0.000458	20.828702
155.068521	-2.988900	3.857600	-11.529000	22.054204	0.000456	20.802174
156.053158	-2.982900	3.856800	-11.503000	22.049835	0.000456	20.819138
157.068989	-3.020300	3.856700	-11.647000	22.062010	0.000458	20.810938
158.069134	-3.016500	3.855600	-11.629000	22.058859	0.000459	20.785024
159.073208	-3.001500	3.856400	-11.573000	22.042576	0.000457	20.801440
160.065947	-2.953000	3.858600	-11.393000	22.067335	0.000459	20.789242
161.051554	-3.006800	3.857100	-11.596000	22.056540	0.000460	20.785547
162.066843	-3.004500	3.855500	-11.583000	22.045067	0.000458	20.784967
163.051278	-2.998000	3.857100	-11.563000	22.066781	0.000461	20.810972
164.073346	-2.991700	3.857200	-11.539000	22.084729	0.000459	20.814242
165.052650	-3.015300	3.855100	-11.624000	22.087750	0.000460	20.796403
166.067488	-3.007500	3.854900	-11.592000	22.117900	0.000462	20.783439
167.074430	-3.015800	3.854500	-11.623000	22.123738	0.000461	20.807775
168.073379	-3.008400	3.856000	-11.599000	22.120275	0.000460	20.796248
169.054343	-2.982800	3.855500	-11.499000	22.140885	0.000461	20.783692
170.069154	-2.999600	3.855100	-11.563000	22.125485	0.000462	20.784395
171.071766	-3.011700	3.853600	-11.606000	22.169726	0.000463	20.782220
172.076559	-2.994500	3.854400	-11.541000	22.178748	0.000463	20.790306
173.057560	-3.018000	3.853700	-11.630000	22.172942	0.000462	20.794450
174.072817	-2.972600	3.854200	-11.456000	22.195446	0.000461	20.770514
175.078855	-3.022300	3.853000	-11.644000	22.183501	0.000462	20.786055
176.074895	-3.014800	3.853100	-11.616000	22.207727	0.000462	20.794190
177.073949	-2.999100	3.852900	-11.555000	22.205669	0.000462	20.794499
178.075211	-2.984200	3.854400	-11.501000	22.211776	0.000464	20.776432
179.076621	-3.001300	3.853400	-11.564000	22.208976	0.000463	20.768887
180.076923	-2.999900	3.853400	-11.559000	22.220430	0.000464	20.769924
181.063622	-3.003900	3.853600	-11.574000	22.217557	0.000464	20.777953
182.060174	-2.991200	3.852700	-11.524000	22.240484	0.000463	20.779572
183.061596	-3.010600	3.853000	-11.599000	22.231087	0.000465	20.789603
184.062325	-3.004200	3.852200	-11.571000	22.244182	0.000467	20.781378
185.079790	-3.009100	3.850800	-11.587000	22.263499	0.000466	20.763735
186.090832	-3.022500	3.850800	-11.638000	22.265067	0.000468	20.776685
187.089241	-2.988400	3.852400	-11.512000	22.281511	0.000469	20.786512
188.093655	-2.982700	3.851700	-11.487000	22.248135	0.000467	20.781068
189.081319	-3.016000	3.849900	-11.609000	22.314732	0.000471	20.772835
190.066402	-2.988400	3.850600	-11.505000	22.292810	0.000469	20.780756
191.061085	-2.985700	3.851200	-11.497000	22.321337	0.000467	20.761905
192.062728	-2.985600	3.850900	-11.497000	22.304992	0.000469	20.751702
193.062979	-3.006200	3.850100	-11.574000	22.303775	0.000470	20.752854
194.067261	-3.008300	3.849200	-11.578000	22.311180	0.000471	20.758846
195.080339	-2.981300	3.851500	-11.482000	22.306371	0.000470	20.767308
196.065462	-3.005000	3.849600	-11.567000	22.319303	0.000470	20.765558
197.063449	-3.002400	3.850300	-11.559000	22.318584	0.000470	20.771477
198.064812	-3.003500	3.848400	-11.557000	22.319360	0.000471	20.760399
199.064412	-3.002500	3.848100	-11.553000	22.342309	0.000471	20.781958
200.068425	-3.015100	3.849300	-11.604000	22.348146	0.000471	20.750343
201.064445	-2.960700	3.849400	-11.396000	22.361331	0.000475	20.764969
202.063513	-2.991500	3.849200	-11.514000	22.362351	0.000474	20.756508
203.064793	-2.998300	3.847900	-11.536000	22.391088	0.000474	20.769163
204.064723	-2.994500	3.848700	-11.524000	22.362131	0.000473	20.752967
205.065999	-2.996300	3.848000	-11.529000	22.391390	0.000474	20.753817
206.065332	-3.002500	3.848400	-11.554000	22.387356	0.000475	20.756891
207.065517	-3.019100	3.847500	-11.615000	22.394434	0.000474	20.767772
208.067752	-2.974800	3.848800	-11.449000	22.400541	0.000474	20.762981
209.068675	-2.985900	3.847500	-11.487000	22.416492	0.000475	20.771843
210.089403	-2.984000	3.847300	-11.480000	22.419676	0.000475	20.740418
211.068014	-3.010900	3.846100	-11.579000	22.431170	0.000477	20.748609
212.094900	-2.990600	3.847000	-11.504000	22.423643	0.000476	20.732536
213.090729	-2.991100	3.846300	-11.504000	22.469349	0.000476	20.751282
214.093210	-2.993300	3.846900	-11.514000	22.481512	0.000478	20.766782
215.073796	-3.004900	3.846700	-11.559000	22.468304	0.000477	20.735536
216.068357	-3.009800	3.846600	-11.576000	22.455700	0.000477	20.749467
217.069870	-3.011000	3.845100	-11.577000	22.458337	0.000477	20.746417
218.069902	-3.006800	3.845200	-11.560000	22.475838	0.000477	20.747349
219.070654	-2.972500	3.847100	-11.434000	22.472867	0.000478	20.750538
220.089298	-3.009600	3.845600	-11.573000	22.475814	0.000478	20.725038
221.095249	-3.006200	3.844800	-11.557000	22.480825	0.000479	20.748076
222.087093	-3.017100	3.843000	-11.593000	22.488082	0.000478	20.755818
223.087884	-2.981100	3.845100	-11.462000	22.476319	0.000479	20.743089
224.089415	-3.005500	3.844600	-11.554000	22.485960	0.000480	20.748951
225.088932	-2.991700	3.843500	-11.497000	22.504996	0.000481	20.738617
226.076916	-2.997500	3.843500	-11.520000	22.516162	0.000479	20.735101
227.101045	-2.969900	3.844100	-11.416000	22.528798	0.000481	20.767198
228.077899	-2.993900	3.844300	-11.508000	22.527697	0.000481	20.731954
229.091447	-3.005100	3.843600	-11.549000	22.548682	0.000479	20.721677
230.075689	-3.006900	3.843000	-11.554000	22.538218	0.000485	20.730163
231.076453	-3.011500	3.843000	-11.572000	22.569211	0.000482	20.743661
232.092198	-2.998500	3.842200	-11.520000	22.570762	0.000483	20.737627
233.091771	-3.016000	3.840600	-11.583000	22.581927	0.000482	20.736482
234.074743	-3.005200	3.842200	-11.546000	22.571986	0.000484	20.725102
235.075042	-2.996500	3.842600	-11.514000	22.579136	0.000482	20.751231
236.093967	-3.007500	3.842300	-11.555000	22.592988	0.000484	20.724326
237.100054	-3.016500	3.841400	-11.586000	22.616111	0.000483	20.728519
238.092965	-3.014200	3.840000	-11.574000	22.625864	0.000484	20.716476
239.092923	-2.996100	3.841400	-11.507000	22.630443	0.000487	20.743823
240.076939	-3.025900	3.839100	-11.616000	22.641037	0.000486	20.730252
241.092309	-3.018500	3.841200	-11.594000	22.633168	0.000486	20.725689
242.105624	-2.995900	3.840300	-11.504000	22.620632	0.000482	20.717400
243.094281	-2.999600	3.840900	-11.519000	22.644995	0.000485	20.720466
244.106086	-3.007800	3.839300	-11.547000	22.644554	0.000487	20.719075
245.099359	-2.993600	3.839100	-11.492000	22.666754	0.000486	20.733726
246.093569	-2.979200	3.840800	-11.442000	22.686162	0.000487	20.728510
247.079060	-2.980200	3.839800	-11.442000	22.686268	0.000487	20.713916
248.101264	-2.988500	3.840600	-11.477000	22.700592	0.000487	20.721152
249.101459	-3.006800	3.839300	-11.543000	22.687320	0.000489	20.719712
250.079561	-3.010900	3.839300	-11.558000	22.682334	0.000489	20.720407
251.081812	-3.004200	3.839300	-11.533000	22.694347	0.000489	20.737657
252.081144	-2.999200	3.839300	-11.514000	22.741911	0.000490	20.741205
253.084457	-3.010500	3.838600	-11.556000	22.730011	0.000488	20.724068
254.081113	-3.021000	3.837900	-11.594000	22.738549	0.000489	20.720292
255.081253	-3.006200	3.838100	-11.537000	22.758584	0.000490	20.719973
256.081908	-2.998000	3.837900	-11.505000	22.743143	0.000490	20.734852
257.098421	-3.005900	3.837300	-11.534000	22.781426	0.000489	20.715354
258.108826	-3.005700	3.837400	-11.533000	22.739405	0.000492	20.716408
259.101941	-2.993400	3.836600	-11.484000	22.730321	0.000490	20.721533
260.100502	-3.003300	3.837400	-11.524000	22.748855	0.000492	20.697897
261.100664	-2.985900	3.836500	-11.455000	22.770449	0.000493	20.716685
262.111316	-3.002100	3.836200	-11.515000	22.780014	0.000492	20.716784
263.084475	-2.989600	3.837400	-11.472000	22.798702	0.000493	20.713219
264.093932	-3.001700	3.836000	-11.514000	22.796629	0.000493	20.730110
265.101280	-3.009400	3.834800	-11.540000	22.781115	0.000492	20.720732
266.104381	-2.996300	3.835400	-11.491000	22.787725	0.000492	20.714551
267.084524	-2.996100	3.835500	-11.491000	22.794001	0.000493	20.704241
268.085861	-3.016200	3.833900	-11.562000	22.820310	0.000493	20.708312
269.109318	-2.980200	3.835800	-11.430000	22.838917	0.000494	20.713202
270.086668	-3.005800	3.835600	-11.528000	22.844645	0.000492	20.692861
271.102941	-3.007400	3.833700	-11.529000	22.836641	0.000493	20.705231
272.110795	-2.997400	3.834400	-11.493000	22.858795	0.000496	20.688069
