LabVIEW Measurement	
Writer_Version	2
Reader_Version	2
Separator	Tab
Decimal_Separator	.
Multi_Headings	No
X_Columns	One
Time_Pref	Absolute
Operator	admin
Description	Clolumns are: time, Current, Voltage, Power, Battery Temp, and Chamber Temp
Date	2024/08/16
Time	13:07:17.8513970375061035156
***End_of_Header***	
	
Channels	6						
Samples	1	1	1	1	1	1	
Date	2024/09/01	2024/09/01	2024/09/01	2024/09/01	2024/09/01	2024/09/01	
Time	14:31:03.1987290382385253906	14:31:03.204746246337890625	14:31:03.2107405662536621094	14:31:03.1835346221923828125	14:31:03.1835346221923828125	14:31:03.1835346221923828125	
X_Dimension	Time	Time	Time	Time	Time	Time	
X0	0.0000000000000000E+0	0.0000000000000000E+0	0.0000000000000000E+0	0.0000000000000000E+0	0.0000000000000000E+0	0.0000000000000000E+0	
Delta_X	1.000000	1.000000	1.000000	1.000000	1.000000	1.000000	
***End_of_Header***							
X_Value	Untitled	Untitled 1	Untitled 2	Untitled 3	Untitled 4	Untitled 5	Comment
0.000000	0.023393	4.094700	0.095796	20.768876	0.000467	20.720510
1.001471	-2.998600	3.931200	-11.787000	20.797807	0.000469	20.715775
2.000743	-2.999500	3.922200	-11.763000	20.783730	0.000466	20.727777
3.000498	-2.997000	3.919500	-11.746000	20.794063	0.000465	20.707763
4.003047	-2.995800	3.915400	-11.729000	20.794308	0.000465	20.727925
5.002791	-2.999200	3.913400	-11.736000	20.819143	0.000467	20.723837
6.004786	-2.999300	3.911200	-11.730000	20.790891	0.000464	20.714549
7.007037	-2.985000	3.909000	-11.667000	20.810036	0.000462	20.737964
8.004425	-2.995900	3.905900	-11.701000	20.808639	0.000460	20.716176
9.005931	-3.005400	3.904400	-11.733000	20.794119	0.000461	20.702129
10.004221	-3.005100	3.903600	-11.730000	20.822772	0.000460	20.723198
11.004770	-3.001600	3.901800	-11.711000	20.801983	0.000460	20.706675
12.006798	-2.991300	3.900100	-11.666000	20.826811	0.000461	20.722969
13.005151	-2.998000	3.897900	-11.685000	20.847353	0.000458	20.726917
14.004833	-3.003800	3.896200	-11.703000	20.860309	0.000460	20.706682
15.003788	-2.997600	3.896900	-11.680000	20.868517	0.000459	20.699242
16.004839	-2.985800	3.894800	-11.628000	20.862132	0.000458	20.707082
17.008526	-2.995700	3.894700	-11.666000	20.874035	0.000459	20.718038
18.006527	-3.004700	3.894100	-11.700000	20.869817	0.000457	20.703861
19.006325	-3.009100	3.892300	-11.710000	20.864911	0.000456	20.696110
20.007234	-2.991200	3.892200	-11.641000	20.896424	0.000456	20.705815
21.005638	-3.010500	3.889900	-11.709000	20.917759	0.000454	20.695382
22.006014	-3.009500	3.888900	-11.703000	20.901737	0.000454	20.683626
23.009832	-3.012800	3.889200	-11.717000	20.887496	0.000454	20.700680
24.008202	-3.018500	3.887200	-11.731000	20.940645	0.000455	20.700254
25.006599	-3.020600	3.886100	-11.737000	20.939673	0.000454	20.708291
26.007822	-2.980300	3.887000	-11.583000	20.937604	0.000452	20.740838
27.006587	-3.003900	3.887100	-11.676000	20.940867	0.000453	20.708063
28.009488	-2.991000	3.885400	-11.620000	20.950503	0.000455	20.703001
29.007061	-2.997500	3.885700	-11.647000	20.961758	0.000453	20.671107
30.009810	-3.026800	3.883500	-11.753000	20.959518	0.000452	20.695422
31.009327	-3.004400	3.883800	-11.668000	20.981522	0.000452	20.692299
32.010191	-2.996200	3.884200	-11.637000	20.995745	0.000451	20.698463
33.011497	-2.991400	3.883000	-11.614000	21.014683	0.000452	20.675203
34.011180	-2.974600	3.884800	-11.555000	20.990635	0.000452	20.685766
35.010327	-2.977000	3.884400	-11.563000	20.992230	0.000452	20.687360
36.009754	-2.989200	3.882800	-11.606000	21.023820	0.000451	20.676756
37.011762	-2.969600	3.883600	-11.532000	21.022742	0.000452	20.700810
38.010396	-3.016300	3.882400	-11.710000	21.030359	0.000449	20.687564
39.011979	-3.006500	3.881500	-11.669000	21.039963	0.000450	20.679151
40.011911	-3.004700	3.881600	-11.662000	21.058753	0.000449	20.682299
41.011710	-3.004200	3.880900	-11.658000	21.050146	0.000447	20.712099
42.014946	-3.000400	3.880300	-11.642000	21.060217	0.000448	20.697989
43.014480	-2.989500	3.881500	-11.603000	21.068774	0.000450	20.675726
44.015018	-2.988800	3.881200	-11.599000	21.079530	0.000449	20.691702
45.013198	-3.000900	3.879800	-11.642000	21.100264	0.000449	20.684940
46.013489	-2.996800	3.879400	-11.625000	21.096939	0.000449	20.675923
47.014128	-3.024500	3.877200	-11.726000	21.108470	0.000447	20.686510
48.014903	-3.009400	3.877100	-11.666000	21.128748	0.000447	20.678817
49.016875	-3.002900	3.878100	-11.645000	21.128175	0.000447	20.686780
50.017493	-2.998100	3.876400	-11.620000	21.126125	0.000445	20.670029
51.015808	-3.007300	3.876800	-11.657000	21.127448	0.000445	20.677043
52.015314	-2.985500	3.876800	-11.573000	21.131837	0.000446	20.690918
53.018304	-2.979400	3.877200	-11.551000	21.163097	0.000447	20.679987
54.014981	-2.991700	3.877800	-11.600000	21.161324	0.000446	20.691965
55.017456	-2.994700	3.874700	-11.603000	21.180137	0.000447	20.667633
56.015947	-2.982500	3.877600	-11.563000	21.174817	0.000446	20.683650
57.016557	-2.999300	3.875800	-11.623000	21.208871	0.000444	20.691164
58.016963	-3.024000	3.875700	-11.719000	21.190533	0.000446	20.691785
59.018004	-3.009500	3.874900	-11.661000	21.222568	0.000447	20.675940
60.019854	-3.002000	3.874600	-11.631000	21.218277	0.000448	20.677812
61.017310	-3.008900	3.875400	-11.659000	21.210799	0.000446	20.668908
62.019353	-3.007100	3.874600	-11.651000	21.219201	0.000446	20.676840
63.018817	-2.997500	3.876500	-11.618000	21.236256	0.000446	20.681100
64.020389	-2.990100	3.874900	-11.585000	21.263304	0.000447	20.665957
65.020037	-2.993100	3.875400	-11.598000	21.256662	0.000445	20.685867
66.023125	-3.024100	3.872200	-11.709000	21.273005	0.000446	20.688940
67.022909	-3.000300	3.873300	-11.620000	21.281936	0.000445	20.695031
68.022698	-3.015600	3.873000	-11.679000	21.278324	0.000445	20.695210
69.023217	-3.007300	3.873600	-11.647000	21.302790	0.000446	20.666105
70.021253	-3.009400	3.872600	-11.653000	21.311019	0.000443	20.672916
71.022244	-3.013300	3.873500	-11.671000	21.326340	0.000445	20.662638
72.022521	-3.004800	3.872200	-11.635000	21.327934	0.000445	20.666604
73.022212	-3.006200	3.872800	-11.642000	21.338859	0.000446	20.672793
74.022793	-2.965300	3.874000	-11.487000	21.322450	0.000446	20.688147
75.024204	-2.991300	3.871700	-11.581000	21.336816	0.000447	20.668852
76.024806	-3.000400	3.872100	-11.617000	21.339470	0.000447	20.659178
77.025211	-3.002800	3.871700	-11.625000	21.379967	0.000442	20.675041
78.024836	-2.980300	3.871400	-11.537000	21.362710	0.000445	20.665835
79.024863	-2.987400	3.872700	-11.569000	21.358395	0.000445	20.682382
80.029496	-3.003200	3.872400	-11.629000	21.377173	0.000446	20.682203
81.022708	-2.986100	3.870700	-11.557000	21.392419	0.000446	20.669006
82.025338	-2.967300	3.870900	-11.486000	21.401946	0.000446	20.659097
83.023813	-2.982900	3.871500	-11.547000	21.415665	0.000445	20.650537
84.023461	-2.990200	3.869800	-11.571000	21.419635	0.000448	20.661623
85.028599	-2.995400	3.870400	-11.592000	21.423770	0.000446	20.679987
86.024673	-3.007100	3.870100	-11.637000	21.435699	0.000447	20.650193
87.026805	-2.982900	3.870200	-11.543000	21.455847	0.000448	20.650439
88.027115	-3.009400	3.869500	-11.644000	21.457195	0.000445	20.672653
89.031338	-2.989900	3.870600	-11.570000	21.473683	0.000447	20.655957
90.028498	-2.998200	3.869300	-11.600000	21.498251	0.000446	20.643554
91.027060	-3.007600	3.868000	-11.632000	21.484231	0.000447	20.648493
92.031284	-2.996300	3.869800	-11.594000	21.471503	0.000446	20.663260
93.028000	-3.000300	3.869200	-11.607000	21.482728	0.000445	20.671174
94.029188	-2.976100	3.869600	-11.516000	21.489272	0.000447	20.661124
95.028168	-3.001400	3.868200	-11.609000	21.507099	0.000447	20.654306
96.029032	-2.981700	3.869600	-11.537000	21.496895	0.000447	20.675867
97.027702	-3.014000	3.867100	-11.654000	21.523758	0.000447	20.646318
98.030614	-2.992100	3.867300	-11.570000	21.536682	0.000445	20.674427
99.029773	-2.992700	3.868600	-11.577000	21.526036	0.000448	20.655711
100.029831	-3.003000	3.867900	-11.614000	21.536503	0.000446	20.674247
101.032054	-3.013500	3.868700	-11.657000	21.582294	0.000447	20.649416
102.030530	-3.016500	3.866100	-11.661000	21.555889	0.000448	20.642433
103.032431	-3.005000	3.866800	-11.619000	21.567833	0.000447	20.652964
104.031564	-2.986200	3.868300	-11.551000	21.602251	0.000447	20.666070
105.031404	-3.033900	3.866200	-11.728000	21.601180	0.000447	20.654092
106.030800	-3.028500	3.865600	-11.706000	21.598583	0.000451	20.661925
107.031610	-2.988900	3.867600	-11.559000	21.608052	0.000448	20.677567
108.031452	-3.020400	3.865600	-11.674000	21.604743	0.000449	20.678997
109.031425	-2.988900	3.866400	-11.555000	21.613100	0.000447	20.663650
110.034687	-2.997000	3.865900	-11.585000	21.600257	0.000449	20.664549
111.033020	-3.017400	3.865200	-11.662000	21.624022	0.000448	20.646129
112.034298	-3.005100	3.865600	-11.615000	21.647516	0.000450	20.668694
113.034103	-3.007300	3.864600	-11.621000	21.656437	0.000449	20.664345
114.032420	-2.983600	3.865600	-11.533000	21.666805	0.000450	20.646269
115.033773	-3.012100	3.867000	-11.647000	21.645393	0.000450	20.674630
116.033932	-3.017800	3.865500	-11.665000	21.663193	0.000448	20.655933
117.036751	-3.016100	3.866200	-11.660000	21.666731	0.000450	20.677967
118.035953	-3.000900	3.865500	-11.599000	21.699219	0.000452	20.642672
119.037900	-2.979800	3.864600	-11.515000	21.693084	0.000452	20.670675
120.035220	-2.977000	3.865300	-11.506000	21.716120	0.000452	20.657218
121.037087	-2.989400	3.864500	-11.552000	21.704823	0.000451	20.671518
122.037514	-2.997400	3.864700	-11.583000	21.748305	0.000454	20.677103
123.035384	-2.988200	3.865600	-11.551000	21.742669	0.000452	20.685687
124.040376	-3.007200	3.863700	-11.618000	21.746132	0.000452	20.670186
125.037856	-2.998800	3.862400	-11.581000	21.736232	0.000453	20.671658
126.036222	-3.000100	3.862600	-11.586000	21.746894	0.000454	20.660990
127.042924	-3.007700	3.863600	-11.619000	21.734919	0.000455	20.663231
128.041166	-2.994400	3.864400	-11.571000	21.760046	0.000454	20.657083
129.036418	-3.014300	3.862100	-11.640000	21.765545	0.000453	20.670649
130.037663	-3.004900	3.863300	-11.608000	21.779284	0.000456	20.656422
131.036727	-3.007700	3.862200	-11.615000	21.777652	0.000454	20.650995
132.037552	-3.013600	3.862000	-11.637000	21.794373	0.000456	20.685752
133.037944	-3.015800	3.862700	-11.648000	21.813887	0.000454	20.669246
134.038202	-2.996600	3.861100	-11.569000	21.830934	0.000455	20.660703
135.041408	-2.997400	3.861800	-11.574000	21.842893	0.000453	20.672674
136.038992	-2.979400	3.862200	-11.505000	21.810279	0.000455	20.660893
137.040830	-3.004100	3.862400	-11.602000	21.824126	0.000454	20.677124
138.039402	-2.988900	3.862700	-11.545000	21.848409	0.000453	20.682938
139.039775	-3.021000	3.860300	-11.661000	21.850297	0.000458	20.677240
140.039201	-2.982100	3.861800	-11.514000	21.840913	0.000455	20.708628
141.042210	-2.999100	3.861100	-11.579000	21.868912	0.000455	20.676906
142.043103	-3.011600	3.860100	-11.624000	21.880315	0.000457	20.675044
143.042140	-3.007700	3.859900	-11.609000	21.895776	0.000455	20.675820
144.040181	-3.007100	3.860700	-11.608000	21.893597	0.000457	20.678855
145.039962	-2.992600	3.861300	-11.554000	21.889456	0.000458	20.681349
146.042579	-3.012700	3.859400	-11.626000	21.912611	0.000458	20.694570
147.039349	-2.981000	3.860700	-11.508000	21.923180	0.000457	20.686182
148.039356	-2.993800	3.859900	-11.555000	21.931625	0.000459	20.698430
149.038200	-3.016700	3.859000	-11.640000	21.949151	0.000458	20.688472
150.039085	-3.018400	3.858800	-11.645000	21.959481	0.000461	20.697391
151.043248	-3.010100	3.860200	-11.618000	21.941874	0.000458	20.692094
152.043700	-2.995500	3.859600	-11.560000	21.935366	0.000457	20.683681
153.042251	-3.010500	3.859100	-11.617000	21.958306	0.000459	20.707121
154.042543	-3.017200	3.860000	-11.646000	21.951071	0.000459	20.688497
155.044748	-3.004400	3.857600	-11.587000	21.960095	0.000459	20.689944
156.042965	-2.994400	3.858500	-11.554000	21.955032	0.000459	20.688195
157.047831	-3.013200	3.858700	-11.626000	21.987136	0.000456	20.690460
158.042869	-3.000400	3.857800	-11.574000	21.996143	0.000460	20.689993
159.042803	-2.978800	3.858800	-11.493000	22.000055	0.000461	20.708135
160.042853	-3.002200	3.857600	-11.580000	22.011121	0.000461	20.683175
161.045045	-2.990800	3.857300	-11.534000	22.013275	0.000459	20.683435
162.050785	-2.994500	3.857400	-11.550000	22.040968	0.000461	20.683182
163.045236	-2.984200	3.857200	-11.510000	22.057472	0.000458	20.720096
164.046613	-3.005100	3.857300	-11.590000	22.036379	0.000462	20.690917
165.046151	-2.994800	3.857900	-11.552000	22.042813	0.000461	20.687875
166.048055	-3.007100	3.857300	-11.598000	22.048171	0.000462	20.688497
167.046945	-2.980200	3.856800	-11.493000	22.049297	0.000460	20.682512
168.050900	-3.025600	3.856300	-11.666000	22.062331	0.000464	20.691293
169.046433	-3.009300	3.856900	-11.606000	22.061464	0.000462	20.684735
170.047718	-2.992100	3.857300	-11.541000	22.083455	0.000463	20.675929
171.048767	-3.013500	3.854300	-11.614000	22.101133	0.000464	20.695052
172.048487	-3.013700	3.855200	-11.618000	22.113384	0.000465	20.679814
173.051322	-3.003100	3.855900	-11.577000	22.114061	0.000465	20.699934
174.048302	-3.027800	3.855100	-11.671000	22.109104	0.000463	20.702558
175.048735	-3.033900	3.855300	-11.695000	22.116461	0.000464	20.698069
176.048681	-3.020100	3.855500	-11.643000	22.129451	0.000467	20.697324
177.048371	-3.009300	3.854900	-11.600000	22.136426	0.000467	20.668742
178.050476	-3.015900	3.854200	-11.623000	22.137724	0.000468	20.710349
179.047260	-3.006600	3.854500	-11.588000	22.172647	0.000466	20.695526
180.048299	-2.992800	3.854500	-11.535000	22.179147	0.000466	20.701086
181.048476	-3.003200	3.854700	-11.575000	22.166378	0.000468	20.713432
182.053720	-3.010400	3.854900	-11.604000	22.176993	0.000467	20.694661
183.049390	-2.974000	3.854300	-11.461000	22.205148	0.000471	20.688711
184.049766	-3.002700	3.851900	-11.565000	22.192656	0.000470	20.715087
185.049976	-2.994400	3.852900	-11.536000	22.206782	0.000472	20.691770
186.050366	-3.000500	3.853200	-11.560000	22.228258	0.000471	20.731293
187.049663	-3.006200	3.853200	-11.583000	22.239234	0.000469	20.709564
188.050363	-2.996100	3.852300	-11.541000	22.237872	0.000473	20.707253
189.055912	-3.001200	3.853500	-11.564000	22.237188	0.000473	20.718897
190.052615	-2.983700	3.854400	-11.499000	22.225121	0.000473	20.711556
191.052530	-3.013300	3.851900	-11.606000	22.245747	0.000471	20.713716
192.051636	-2.992200	3.852900	-11.527000	22.277117	0.000470	20.713831
193.053167	-3.000700	3.852600	-11.559000	22.272497	0.000473	20.733389
194.052723	-3.026200	3.851800	-11.654000	22.302193	0.000471	20.717130
195.054738	-3.000000	3.852100	-11.555000	22.322467	0.000472	20.727000
196.054176	-3.025200	3.850800	-11.649000	22.322688	0.000474	20.708728
197.053745	-2.991400	3.851700	-11.520000	22.323025	0.000473	20.722342
198.055187	-3.028500	3.850200	-11.660000	22.314070	0.000473	20.705787
199.053573	-3.022600	3.851300	-11.640000	22.326171	0.000475	20.731183
200.055789	-3.019500	3.851000	-11.628000	22.339349	0.000476	20.726360
201.055364	-3.011100	3.850000	-11.592000	22.319005	0.000473	20.733016
202.056556	-3.025300	3.849000	-11.643000	22.358251	0.000476	20.711622
203.054216	-3.011200	3.851500	-11.596000	22.335866	0.000475	20.719079
204.055226	-3.005100	3.850000	-11.569000	22.356350	0.000473	20.715408
205.057403	-3.000900	3.849300	-11.551000	22.360401	0.000475	20.729897
206.060591	-2.998700	3.850500	-11.546000	22.364508	0.000476	20.722630
207.055829	-3.001700	3.850200	-11.555000	22.355946	0.000475	20.732549
208.056468	-2.991900	3.850100	-11.518000	22.383816	0.000475	20.747182
209.061820	-2.997300	3.848600	-11.534000	22.365483	0.000476	20.723606
210.057683	-3.008300	3.848600	-11.577000	22.373656	0.000477	20.723255
211.058760	-3.003400	3.848000	-11.556000	22.396376	0.000478	20.718980
212.057554	-3.008800	3.847100	-11.574000	22.419805	0.000476	20.729641
213.057054	-3.000400	3.847900	-11.545000	22.418231	0.000478	20.736125
214.057281	-2.988400	3.848900	-11.501000	22.447407	0.000476	20.740213
215.059397	-2.992400	3.847300	-11.512000	22.436240	0.000478	20.729978
216.060770	-2.976900	3.848100	-11.455000	22.446934	0.000477	20.732626
217.057040	-3.013900	3.846300	-11.591000	22.446471	0.000478	20.746862
218.058001	-2.997900	3.847100	-11.532000	22.449883	0.000479	20.732735
219.057291	-3.006100	3.845800	-11.560000	22.467279	0.000479	20.735932
220.061889	-2.975300	3.847500	-11.446000	22.479884	0.000478	20.743339
221.061498	-2.986700	3.846200	-11.487000	22.486235	0.000479	20.736423
222.062745	-3.011600	3.846300	-11.583000	22.497216	0.000481	20.751214
223.059297	-3.012100	3.846700	-11.585000	22.507312	0.000479	20.742359
224.058670	-3.006000	3.844200	-11.555000	22.532405	0.000479	20.743308
225.061749	-3.005100	3.846300	-11.558000	22.520863	0.000482	20.749767
226.060150	-2.998800	3.846300	-11.534000	22.532194	0.000482	20.752106
227.063604	-2.982800	3.847200	-11.475000	22.540144	0.000480	20.745844
228.061706	-2.994300	3.845800	-11.515000	22.556111	0.000479	20.750456
229.062447	-3.021900	3.844900	-11.618000	22.557458	0.000481	20.766029
230.062169	-3.010400	3.844600	-11.573000	22.538391	0.000483	20.758313
231.062916	-3.009700	3.845100	-11.571000	22.540506	0.000482	20.751422
232.066486	-3.031800	3.844200	-11.654000	22.530122	0.000480	20.748608
233.070360	-2.997500	3.845000	-11.524000	22.540057	0.000482	20.763775
234.066135	-2.970700	3.844700	-11.421000	22.547804	0.000485	20.768688
235.065881	-2.974500	3.845000	-11.436000	22.563304	0.000485	20.758134
236.071317	-2.988000	3.843300	-11.482000	22.560155	0.000482	20.758773
237.066548	-2.992100	3.843000	-11.498000	22.589212	0.000485	20.737614
238.068421	-3.022400	3.842300	-11.612000	22.611985	0.000485	20.759001
239.066973	-2.997900	3.842300	-11.519000	22.613177	0.000485	20.735539
240.067178	-2.982500	3.844500	-11.465000	22.622368	0.000487	20.769401
241.067134	-3.006300	3.842600	-11.550000	22.617480	0.000485	20.743168
242.066684	-3.000500	3.842800	-11.529000	22.648022	0.000484	20.757165
243.070901	-3.019900	3.842000	-11.602000	22.638334	0.000484	20.757892
244.065815	-3.013400	3.842600	-11.577000	22.642230	0.000486	20.746621
245.066412	-3.002100	3.842000	-11.533000	22.647917	0.000486	20.764172
246.067313	-3.006400	3.841500	-11.547000	22.646410	0.000487	20.769300
247.066689	-3.010600	3.841500	-11.564000	22.636819	0.000487	20.765858
248.066602	-3.014900	3.841300	-11.581000	22.640526	0.000488	20.762458
249.070325	-3.006900	3.840800	-11.548000	22.653602	0.000489	20.749950
250.066469	-2.981000	3.842700	-11.454000	22.683375	0.000489	20.754643
251.067141	-2.992700	3.841200	-11.494000	22.702678	0.000489	20.772082
252.069958	-2.992300	3.840600	-11.491000	22.688846	0.000488	20.755381
253.065912	-2.985500	3.840000	-11.463000	22.685679	0.000489	20.775917
254.069033	-2.993300	3.840600	-11.495000	22.683877	0.000489	20.772690
255.067733	-3.017400	3.839300	-11.584000	22.680360	0.000489	20.773434
256.067947	-2.997000	3.841100	-11.511000	22.703776	0.000491	20.776501
257.067468	-2.992900	3.838700	-11.488000	22.695943	0.000490	20.750162
258.067498	-3.008900	3.839800	-11.552000	22.706750	0.000492	20.770470
259.070529	-3.009000	3.839500	-11.552000	22.733959	0.000492	20.783975
260.068568	-3.026000	3.838800	-11.615000	22.743854	0.000491	20.798154
261.069052	-2.999500	3.838500	-11.513000	22.772581	0.000492	20.771928
262.068388	-2.999300	3.839300	-11.514000	22.756782	0.000493	20.766533
263.071528	-2.986700	3.837200	-11.459000	22.780196	0.000492	20.765332
264.068599	-2.985900	3.839100	-11.461000	22.790708	0.000493	20.773966
265.070246	-3.003700	3.837300	-11.525000	22.791206	0.000494	20.776835
266.069751	-3.000000	3.836600	-11.509000	22.826021	0.000494	20.774728
267.070137	-2.993400	3.837200	-11.486000	22.833293	0.000494	20.783909
268.071142	-3.016500	3.837200	-11.574000	22.826463	0.000495	20.794611
269.071585	-3.009000	3.837500	-11.546000	22.824871	0.000492	20.781637
270.073052	-3.019700	3.835700	-11.582000	22.815976	0.000493	20.784580
271.071598	-3.015100	3.836100	-11.566000	22.835554	0.000494	20.769579
272.072996	-2.979400	3.837200	-11.432000	22.825036	0.000495	20.773267
