LabVIEW Measurement	
Writer_Version	2
Reader_Version	2
Separator	Tab
Decimal_Separator	.
Multi_Headings	No
X_Columns	One
Time_Pref	Absolute
Operator	admin
Description	Clolumns are: time, Current, Voltage, Power, Battery Temp, and Chamber Temp
Date	2024/08/16
Time	13:07:17.8513970375061035156
***End_of_Header***	
	
Channels	6						
Samples	1	1	1	1	1	1	
Date	2024/09/06	2024/09/06	2024/09/06	2024/09/06	2024/09/06	2024/09/06	
Time	02:41:16.5403289794921875	02:41:16.5462312698364257813	02:41:16.5513615608215332031	02:41:16.524749755859375	02:41:16.524749755859375	02:41:16.524749755859375	
X_Dimension	Time	Time	Time	Time	Time	Time	
X0	0.0000000000000000E+0	0.0000000000000000E+0	0.0000000000000000E+0	0.0000000000000000E+0	0.0000000000000000E+0	0.0000000000000000E+0	
Delta_X	1.000000	1.000000	1.000000	1.000000	1.000000	1.000000	
***End_of_Header***							
X_Value	Untitled	Untitled 1	Untitled 2	Untitled 3	Untitled 4	Untitled 5	Comment
0.000000	0.028379	4.085500	0.116070	20.806103	0.000461	20.845931
1.001222	-2.987000	3.922000	-11.715000	20.814289	0.000463	20.833729
2.001538	-2.975700	3.914500	-11.648000	20.803334	0.000462	20.858334
3.004826	-2.982200	3.911400	-11.664000	20.811369	0.000461	20.840766
4.001581	-2.987500	3.907300	-11.672000	20.802166	0.000459	20.841045
5.004733	-2.984300	3.904200	-11.650000	20.863229	0.000459	20.823876
6.000977	-2.999800	3.901200	-11.702000	20.811250	0.000458	20.845388
7.001989	-2.992000	3.900700	-11.669000	20.833258	0.000457	20.834207
8.004919	-2.995000	3.898900	-11.676000	20.858786	0.000456	20.858786
9.001290	-3.019300	3.895200	-11.759000	20.859888	0.000458	20.848509
10.006732	-3.010600	3.894100	-11.723000	20.861461	0.000454	20.855298
11.001001	-2.973400	3.892900	-11.574000	20.859088	0.000453	20.866199
12.001864	-3.004400	3.890500	-11.686000	20.869368	0.000454	20.856566
13.003639	-2.995500	3.891300	-11.655000	20.880624	0.000453	20.857392
14.000741	-2.991600	3.889700	-11.636000	20.881921	0.000453	20.864852
15.004117	-3.008200	3.888700	-11.698000	20.884442	0.000453	20.861684
16.005317	-3.000300	3.887200	-11.662000	20.908346	0.000452	20.835331
17.002936	-3.002800	3.886900	-11.670000	20.891529	0.000453	20.866400
18.002868	-3.003600	3.886400	-11.672000	20.915159	0.000454	20.859213
19.005102	-3.018000	3.883800	-11.721000	20.927636	0.000452	20.858416
20.013381	-2.999300	3.884200	-11.649000	20.932650	0.000451	20.839249
21.003291	-3.020700	3.882800	-11.728000	20.947074	0.000452	20.851304
22.004301	-3.008800	3.881600	-11.678000	20.948497	0.000451	20.866950
23.004348	-2.992900	3.881300	-11.615000	20.954930	0.000448	20.848729
24.006997	-3.009700	3.880100	-11.678000	20.955605	0.000450	20.850352
25.003687	-2.992200	3.880600	-11.610000	20.972725	0.000452	20.864155
26.004664	-2.987700	3.880800	-11.594000	20.996300	0.000448	20.879199
27.004680	-2.984400	3.879000	-11.575000	20.965959	0.000451	20.863078
28.004133	-2.989600	3.878300	-11.594000	20.988712	0.000448	20.848851
29.009264	-3.001900	3.877600	-11.638000	21.009474	0.000450	20.868667
30.006582	-2.975200	3.878600	-11.539000	21.019181	0.000450	20.878376
31.005661	-2.983100	3.878500	-11.569000	21.018560	0.000446	20.859263
32.003995	-3.012900	3.876800	-11.679000	21.030235	0.000447	20.866199
33.006217	-2.984400	3.876200	-11.567000	21.042985	0.000445	20.864727
34.009766	-3.012000	3.875900	-11.673000	21.041663	0.000449	20.860560
35.006954	-3.004600	3.875700	-11.644000	21.043857	0.000448	20.853272
36.011666	-3.015200	3.873800	-11.680000	21.074943	0.000446	20.873933
37.007300	-3.005400	3.874700	-11.644000	21.083975	0.000447	20.865424
38.007486	-2.983000	3.875600	-11.560000	21.093808	0.000447	20.865776
39.007843	-3.017600	3.873700	-11.689000	21.099392	0.000445	20.883214
40.009737	-3.003300	3.872700	-11.630000	21.108776	0.000443	20.874109
41.010731	-2.990200	3.873600	-11.582000	21.116012	0.000444	20.889406
42.009601	-3.010300	3.872200	-11.655000	21.130307	0.000444	20.888533
43.012077	-3.012800	3.871200	-11.662000	21.139763	0.000446	20.861009
44.014579	-3.002800	3.871700	-11.625000	21.147868	0.000445	20.865797
45.014745	-2.993100	3.872000	-11.587000	21.154655	0.000444	20.871638
46.012646	-3.004500	3.871100	-11.630000	21.156030	0.000444	20.881073
47.012351	-2.982400	3.872000	-11.546000	21.177159	0.000445	20.871390
48.012882	-3.018700	3.870600	-11.682000	21.172344	0.000446	20.886486
49.013030	-3.013400	3.869900	-11.661000	21.175888	0.000444	20.871540
50.014087	-3.007500	3.869700	-11.637000	21.210410	0.000444	20.887582
51.015007	-3.035800	3.867500	-11.740000	21.208367	0.000445	20.880797
52.011046	-2.997900	3.869600	-11.599000	21.215452	0.000444	20.876505
53.016237	-2.996900	3.868400	-11.591000	21.225129	0.000442	20.895193
54.015819	-2.973500	3.869800	-11.506000	21.251025	0.000446	20.890279
55.012564	-2.988500	3.868700	-11.559000	21.225380	0.000444	20.896866
56.015802	-3.013600	3.868900	-11.658000	21.249851	0.000444	20.899535
57.012057	-2.991700	3.868700	-11.574000	21.248878	0.000444	20.886709
58.012125	-3.002200	3.868100	-11.612000	21.263072	0.000442	20.889529
59.017706	-2.981600	3.868300	-11.532000	21.284849	0.000443	20.901356
60.014013	-3.008800	3.867200	-11.635000	21.295602	0.000443	20.888882
61.018538	-3.012300	3.868100	-11.651000	21.300590	0.000443	20.893397
62.014405	-3.013600	3.867600	-11.654000	21.315034	0.000445	20.898838
63.014349	-2.993500	3.867100	-11.576000	21.307699	0.000444	20.901457
64.014396	-2.987600	3.868500	-11.557000	21.323464	0.000443	20.900160
65.015157	-2.998400	3.866900	-11.593000	21.333866	0.000443	20.905824
66.019284	-2.985800	3.867000	-11.545000	21.321842	0.000446	20.868667
67.017416	-3.024000	3.866600	-11.692000	21.353692	0.000442	20.905272
68.014445	-2.989700	3.867000	-11.560000	21.359157	0.000445	20.897937
69.018896	-3.016700	3.865400	-11.660000	21.356636	0.000444	20.888304
70.016895	-3.025800	3.865400	-11.695000	21.364841	0.000444	20.901253
71.014359	-3.003800	3.865000	-11.609000	21.366912	0.000444	20.902377
72.019784	-2.985400	3.864900	-11.536000	21.385815	0.000444	20.886677
73.016693	-3.000000	3.865600	-11.596000	21.409862	0.000445	20.884659
74.016962	-2.983000	3.865800	-11.531000	21.429439	0.000443	20.895237
75.018242	-3.006600	3.863300	-11.614000	21.427170	0.000443	20.889648
76.019248	-2.976100	3.865500	-11.503000	21.425501	0.000444	20.882762
77.021139	-3.011000	3.864200	-11.633000	21.438519	0.000444	20.888200
78.020610	-3.003000	3.864800	-11.605000	21.442282	0.000444	20.881534
79.020009	-3.000800	3.863700	-11.593000	21.461136	0.000444	20.896131
80.020326	-2.991000	3.864300	-11.557000	21.472883	0.000443	20.887497
81.020515	-2.992800	3.863400	-11.561000	21.474879	0.000442	20.878115
82.021442	-2.998500	3.863500	-11.584000	21.501890	0.000445	20.879063
83.024558	-3.001500	3.863800	-11.597000	21.460458	0.000446	20.873170
84.021719	-2.997600	3.863600	-11.581000	21.482881	0.000445	20.872846
85.021954	-2.983200	3.863400	-11.524000	21.488094	0.000442	20.869527
86.026003	-3.006200	3.863600	-11.613000	21.505803	0.000447	20.857376
87.024632	-2.994000	3.863400	-11.566000	21.492829	0.000446	20.867628
88.031253	-3.003300	3.863400	-11.602000	21.522586	0.000445	20.856151
89.024863	-3.007000	3.861300	-11.610000	21.537598	0.000445	20.862638
90.024067	-2.990100	3.861400	-11.545000	21.543956	0.000443	20.882275
91.027339	-2.996100	3.863100	-11.573000	21.539017	0.000443	20.888238
92.024310	-3.005800	3.861100	-11.605000	21.536450	0.000448	20.870972
93.022377	-2.978600	3.862900	-11.505000	21.559295	0.000445	20.858271
94.028107	-2.983700	3.862900	-11.524000	21.556348	0.000445	20.860538
95.023916	-3.014100	3.860100	-11.634000	21.577049	0.000446	20.849485
96.023276	-3.027300	3.861200	-11.688000	21.585701	0.000446	20.860038
97.028306	-2.990500	3.861000	-11.544000	21.588820	0.000448	20.853677
98.023448	-3.007900	3.862200	-11.616000	21.591886	0.000446	20.850581
99.028698	-2.967500	3.861900	-11.459000	21.598670	0.000446	20.862585
100.026350	-2.985100	3.862000	-11.527000	21.607920	0.000447	20.849083
101.026529	-2.995600	3.861400	-11.566000	21.618517	0.000446	20.848782
102.029345	-2.997800	3.858800	-11.567000	21.613506	0.000448	20.844715
103.028706	-2.992600	3.860900	-11.554000	21.632006	0.000447	20.863228
104.030052	-2.998200	3.859300	-11.569000	21.661386	0.000446	20.863706
105.030184	-2.992700	3.860600	-11.553000	21.685449	0.000445	20.863131
106.029386	-3.018700	3.858600	-11.648000	21.677146	0.000449	20.858616
107.030897	-3.016900	3.860500	-11.645000	21.676321	0.000447	20.864428
108.028166	-3.002300	3.860700	-11.590000	21.677520	0.000448	20.855197
109.033505	-3.013800	3.859400	-11.631000	21.674401	0.000448	20.858713
110.028664	-3.014200	3.859100	-11.631000	21.699810	0.000447	20.861382
111.032067	-2.993100	3.860700	-11.555000	21.727511	0.000449	20.843588
112.031043	-3.023200	3.858200	-11.663000	21.705994	0.000449	20.839123
113.032476	-2.984700	3.858300	-11.515000	21.733573	0.000449	20.841120
114.032302	-3.000100	3.859600	-11.579000	21.728211	0.000448	20.835754
115.033525	-3.018000	3.858300	-11.644000	21.739434	0.000450	20.835132
116.033345	-2.979300	3.858500	-11.495000	21.750553	0.000451	20.834881
117.033223	-3.015600	3.856700	-11.629000	21.766708	0.000450	20.829238
118.037948	-3.011000	3.857100	-11.613000	21.769701	0.000452	20.848829
119.034030	-3.020000	3.856800	-11.646000	21.769482	0.000450	20.853350
120.035058	-3.001000	3.858600	-11.579000	21.790396	0.000450	20.838721
121.034937	-2.997000	3.858300	-11.563000	21.797480	0.000450	20.825897
122.035491	-3.006300	3.857100	-11.595000	21.810171	0.000451	20.841918
123.036137	-3.012500	3.856100	-11.616000	21.802566	0.000450	20.829565
124.034242	-3.013300	3.857000	-11.620000	21.818676	0.000452	20.840473
125.034799	-3.021100	3.856100	-11.649000	21.817876	0.000450	20.835879
126.033954	-3.007900	3.855000	-11.594000	21.839545	0.000450	20.829593
127.036292	-2.999500	3.856400	-11.566000	21.846375	0.000453	20.827420
128.033618	-3.005300	3.855700	-11.586000	21.864301	0.000452	20.823078
129.034884	-3.002500	3.855100	-11.574000	21.843062	0.000455	20.830268
130.034175	-2.998900	3.856200	-11.564000	21.857845	0.000449	20.845538
131.034481	-2.978000	3.856900	-11.485000	21.866321	0.000452	20.833160
132.034355	-3.011800	3.855300	-11.609000	21.859865	0.000455	20.830965
133.035748	-2.986600	3.854400	-11.511000	21.899832	0.000454	20.825926
134.035685	-2.985200	3.854800	-11.506000	21.874927	0.000453	20.815221
135.035219	-3.008200	3.854100	-11.593000	21.895842	0.000455	20.832363
136.039392	-2.980800	3.854400	-11.489000	21.917807	0.000455	20.823530
137.035417	-2.999200	3.854300	-11.559000	21.939472	0.000455	20.821034
138.034112	-2.991300	3.853300	-11.525000	21.911596	0.000455	20.837701
139.036806	-2.980500	3.854800	-11.487000	21.949943	0.000456	20.819661
140.038357	-2.981500	3.853900	-11.489000	21.959068	0.000457	20.835434
141.039473	-3.003700	3.853400	-11.574000	21.949071	0.000456	20.806461
142.040997	-2.981900	3.853000	-11.488000	21.947646	0.000455	20.826372
143.038396	-3.000000	3.854900	-11.564000	21.954651	0.000455	20.822478
144.041438	-3.006200	3.851700	-11.578000	21.940792	0.000457	20.821881
145.041112	-3.012200	3.852600	-11.604000	21.978539	0.000457	20.824579
146.039580	-2.985700	3.852100	-11.499000	21.967569	0.000458	20.812650
147.046068	-3.020300	3.853000	-11.636000	21.986911	0.000458	20.799295
148.043767	-3.007100	3.851900	-11.582000	22.018147	0.000457	20.799270
149.042996	-3.006500	3.852800	-11.582000	22.002143	0.000459	20.817388
150.047137	-3.004000	3.851300	-11.568000	21.995039	0.000458	20.814543
151.043762	-3.021800	3.852400	-11.640000	22.003740	0.000460	20.830840
152.045920	-3.004500	3.852000	-11.573000	22.036497	0.000458	20.820010
153.043636	-3.000200	3.852300	-11.557000	22.074288	0.000459	20.811375
154.042959	-3.006600	3.852400	-11.582000	22.042106	0.000460	20.820409
155.043046	-2.996500	3.851500	-11.541000	22.057933	0.000459	20.800218
156.044824	-2.996100	3.852000	-11.540000	22.051930	0.000459	20.823131
157.045087	-2.974000	3.850800	-11.451000	22.050208	0.000459	20.826623
158.048857	-3.029200	3.848600	-11.658000	22.090014	0.000460	20.828067
159.043261	-2.993200	3.851500	-11.526000	22.063595	0.000461	20.822007
160.045504	-2.972800	3.851700	-11.450000	22.086850	0.000460	20.806407
161.048826	-2.997500	3.850300	-11.541000	22.091611	0.000462	20.820183
162.046299	-3.011700	3.851000	-11.597000	22.114997	0.000460	20.790964
163.050041	-2.997400	3.850000	-11.538000	22.124541	0.000460	20.810003
164.047934	-2.997900	3.849600	-11.539000	22.114373	0.000461	20.806935
165.049345	-3.009400	3.848700	-11.581000	22.117387	0.000463	20.808056
166.048167	-2.996600	3.849400	-11.534000	22.128076	0.000460	20.818283
167.050976	-3.015900	3.848700	-11.606000	22.140145	0.000464	20.794331
168.052053	-2.999800	3.848200	-11.543000	22.129676	0.000462	20.805660
169.049860	-3.007600	3.848400	-11.574000	22.148344	0.000463	20.801590
170.048279	-3.021600	3.848400	-11.627000	22.176439	0.000465	20.814072
171.049338	-2.994200	3.849600	-11.525000	22.179852	0.000464	20.783350
172.047857	-2.995100	3.848200	-11.525000	22.172820	0.000466	20.814242
173.049916	-3.016300	3.847800	-11.605000	22.177531	0.000465	20.799992
174.054204	-3.011400	3.847700	-11.586000	22.169705	0.000466	20.805908
175.048439	-2.996800	3.848800	-11.534000	22.204352	0.000463	20.796500
176.050398	-2.986800	3.847000	-11.489000	22.225211	0.000468	20.796522
177.047919	-2.998500	3.846500	-11.533000	22.197098	0.000466	20.784970
178.050316	-3.006500	3.848100	-11.568000	22.222395	0.000466	20.812194
179.048757	-3.008200	3.847600	-11.574000	22.234137	0.000466	20.801192
180.049202	-3.017700	3.846100	-11.605000	22.257739	0.000465	20.799220
181.047185	-2.994900	3.847500	-11.522000	22.229351	0.000466	20.800193
182.049583	-3.013200	3.847200	-11.591000	22.242011	0.000465	20.797222
183.055640	-2.978100	3.847400	-11.457000	22.226237	0.000467	20.807980
184.052365	-2.999900	3.846500	-11.538000	22.226682	0.000466	20.809375
185.049630	-2.983000	3.846200	-11.472000	22.261800	0.000466	20.780052
186.050047	-2.981400	3.846200	-11.466000	22.274834	0.000467	20.793103
187.059044	-3.014400	3.846300	-11.593000	22.278127	0.000468	20.794029
188.051066	-2.984000	3.846300	-11.476000	22.296742	0.000468	20.794177
189.054698	-2.982500	3.846700	-11.471000	22.273413	0.000469	20.773188
190.050261	-2.992000	3.845100	-11.504000	22.281338	0.000468	20.798667
191.050356	-2.998000	3.845600	-11.528000	22.281463	0.000471	20.807801
192.050676	-2.985700	3.845800	-11.481000	22.302672	0.000471	20.801537
193.050775	-3.003800	3.845700	-11.550000	22.306263	0.000470	20.799917
194.051981	-3.000400	3.843800	-11.531000	22.306134	0.000470	20.805952
195.054133	-2.986800	3.843800	-11.480000	22.327895	0.000473	20.802611
196.053495	-3.000700	3.844200	-11.534000	22.362160	0.000472	20.781446
197.053505	-2.973200	3.844400	-11.430000	22.371282	0.000473	20.795323
198.058491	-2.996300	3.842900	-11.514000	22.383665	0.000472	20.785438
199.054409	-3.002100	3.842500	-11.534000	22.399143	0.000470	20.782919
200.054913	-3.027700	3.842000	-11.631000	22.390046	0.000472	20.770965
201.054818	-2.982400	3.843600	-11.462000	22.408663	0.000473	20.791504
202.053013	-3.005900	3.843300	-11.551000	22.429245	0.000475	20.805003
203.072923	-2.993700	3.843400	-11.505000	22.436520	0.000473	20.799486
204.054904	-3.009200	3.842700	-11.563000	22.439336	0.000472	20.783814
205.058015	-2.994900	3.841800	-11.504000	22.463232	0.000474	20.778347
206.058384	-2.985000	3.842800	-11.470000	22.449078	0.000474	20.805898
207.055955	-2.993600	3.841800	-11.500000	22.460190	0.000475	20.764870
208.059524	-3.027800	3.840700	-11.628000	22.459416	0.000475	20.773103
209.057617	-3.007800	3.840900	-11.551000	22.489096	0.000476	20.782439
210.062114	-3.009900	3.840400	-11.558000	22.456127	0.000477	20.774076
211.063113	-2.997200	3.840600	-11.511000	22.471278	0.000476	20.762696
212.060614	-3.005200	3.840400	-11.541000	22.466069	0.000475	20.760326
213.060582	-2.983100	3.842200	-11.460000	22.479674	0.000478	20.779641
214.069685	-3.027000	3.840600	-11.623000	22.459366	0.000477	20.772579
215.059988	-2.989500	3.841500	-11.482000	22.468688	0.000478	20.780018
216.063623	-3.005200	3.840900	-11.541000	22.477903	0.000479	20.775970
217.064079	-3.007800	3.840600	-11.550000	22.486124	0.000479	20.768556
218.060284	-3.001400	3.839400	-11.522000	22.527342	0.000479	20.764791
219.062993	-3.003700	3.839500	-11.532000	22.514907	0.000479	20.772726
220.061060	-3.021700	3.839500	-11.599000	22.534168	0.000478	20.763092
221.065269	-2.988800	3.837800	-11.470000	22.567906	0.000479	20.772701
222.064218	-3.001500	3.838200	-11.520000	22.549142	0.000480	20.762442
223.063182	-2.999000	3.838100	-11.509000	22.555720	0.000480	20.766659
224.063621	-3.003800	3.838600	-11.530000	22.578996	0.000480	20.790446
225.064575	-3.013200	3.838100	-11.564000	22.567656	0.000482	20.768656
226.064213	-3.000400	3.838400	-11.517000	22.585620	0.000480	20.765786
227.068787	-3.009600	3.839000	-11.553000	22.599672	0.000480	20.768955
228.064631	-3.020800	3.837100	-11.590000	22.604880	0.000479	20.770851
229.065814	-3.018500	3.838100	-11.584000	22.615642	0.000482	20.747966
230.067986	-3.008800	3.837600	-11.546000	22.580485	0.000483	20.765859
231.067806	-3.017200	3.837400	-11.577000	22.576149	0.000479	20.760567
232.067176	-2.994200	3.837800	-11.491000	22.560777	0.000482	20.762715
233.065316	-3.011000	3.836200	-11.550000	22.567104	0.000483	20.760517
234.065646	-2.992400	3.836700	-11.479000	22.597079	0.000484	20.778212
235.065260	-3.018800	3.835400	-11.578000	22.622615	0.000482	20.749259
236.065923	-2.998500	3.835800	-11.500000	22.578043	0.000482	20.769102
237.066347	-3.016900	3.835000	-11.569000	22.608585	0.000484	20.760812
238.066688	-3.004100	3.836100	-11.522000	22.607065	0.000487	20.755970
239.064048	-2.993500	3.835700	-11.481000	22.629164	0.000485	20.760087
240.067743	-2.981500	3.835200	-11.434000	22.659884	0.000485	20.757666
241.067301	-2.995200	3.835400	-11.487000	22.686493	0.000486	20.763456
242.068991	-2.969400	3.834800	-11.386000	22.667530	0.000485	20.763902
243.068025	-2.982900	3.834600	-11.437000	22.655921	0.000484	20.765077
244.066882	-2.982600	3.835000	-11.438000	22.640920	0.000485	20.768543
245.073991	-2.964900	3.835000	-11.369000	22.692516	0.000487	20.754789
246.070922	-3.012400	3.832000	-11.542000	22.688954	0.000488	20.754541
247.073183	-3.012800	3.833700	-11.549000	22.705394	0.000487	20.765792
248.068069	-2.974700	3.834900	-11.407000	22.679835	0.000489	20.744458
249.069157	-2.999000	3.832800	-11.493000	22.693237	0.000487	20.762624
250.069217	-3.004400	3.834200	-11.519000	22.691415	0.000490	20.736143
251.069429	-3.000900	3.833200	-11.502000	22.707911	0.000490	20.755986
252.070111	-2.960900	3.832900	-11.347000	22.708434	0.000489	20.759355
253.072996	-3.034900	3.830800	-11.625000	22.735240	0.000492	20.757283
254.071343	-3.006200	3.833500	-11.523000	22.742616	0.000489	20.742860
255.074683	-3.013000	3.831300	-11.542000	22.754647	0.000490	20.740687
256.074642	-3.007800	3.830900	-11.522000	22.749688	0.000491	20.737615
257.073290	-3.007700	3.831200	-11.522000	22.754099	0.000489	20.748198
258.075551	-2.995300	3.832500	-11.479000	22.766456	0.000491	20.731178
259.072717	-2.979900	3.832800	-11.421000	22.796949	0.000492	20.727111
260.075784	-2.995200	3.830900	-11.474000	22.787010	0.000491	20.748923
261.073064	-3.006200	3.830400	-11.514000	22.781054	0.000493	20.751492
262.073439	-2.989400	3.831700	-11.454000	22.807588	0.000492	20.761478
263.074635	-3.019900	3.829600	-11.564000	22.807337	0.000494	20.744631
264.073295	-2.987900	3.830600	-11.444000	22.803827	0.000492	20.747278
265.080725	-2.998300	3.830500	-11.484000	22.815387	0.000493	20.735624
266.074693	-2.986100	3.830400	-11.437000	22.838877	0.000495	20.752519
267.072926	-3.020800	3.828500	-11.564000	22.837830	0.000495	20.750048
268.074121	-3.009000	3.829800	-11.523000	22.847672	0.000496	20.730035
269.077705	-2.986500	3.829800	-11.436000	22.847522	0.000494	20.733678
270.085358	-2.996900	3.828700	-11.473000	22.840849	0.000495	20.745485
271.074528	-3.009000	3.828200	-11.517000	22.841175	0.000494	20.744863
272.076570	-2.987100	3.829000	-11.437000	22.847751	0.000497	20.738174
