LabVIEW Measurement	
Writer_Version	2
Reader_Version	2
Separator	Tab
Decimal_Separator	.
Multi_Headings	No
X_Columns	One
Time_Pref	Absolute
Operator	admin
Description	Clolumns are: time, Current, Voltage, Power, Battery Temp, and Chamber Temp
Date	2024/08/16
Time	13:07:17.8513970375061035156
***End_of_Header***	
	
Channels	6						
Samples	1	1	1	1	1	1	
Date	2024/09/01	2024/09/01	2024/09/01	2024/09/01	2024/09/01	2024/09/01	
Time	21:57:48.6719546318054199219	21:57:48.6784734725952148437	21:57:48.6843576431274414062	21:57:48.6569385528564453125	21:57:48.6569385528564453125	21:57:48.6569385528564453125	
X_Dimension	Time	Time	Time	Time	Time	Time	
X0	0.0000000000000000E+0	0.0000000000000000E+0	0.0000000000000000E+0	0.0000000000000000E+0	0.0000000000000000E+0	0.0000000000000000E+0	
Delta_X	1.000000	1.000000	1.000000	1.000000	1.000000	1.000000	
***End_of_Header***							
X_Value	Untitled	Untitled 1	Untitled 2	Untitled 3	Untitled 4	Untitled 5	Comment
0.000000	0.016205	4.086600	0.066242	20.795526	0.000457	20.713968
1.002820	-3.010000	3.925000	-11.814000	20.820322	0.000454	20.694667
2.009599	-2.979900	3.919500	-11.679000	20.812008	0.000454	20.690146
3.003929	-3.018800	3.914000	-11.814000	20.815285	0.000454	20.694372
4.005938	-2.998100	3.911900	-11.727000	20.808454	0.000454	20.692282
5.005309	-2.995800	3.910300	-11.714000	20.825973	0.000454	20.695102
6.005165	-3.006700	3.906100	-11.744000	20.842894	0.000453	20.701594
7.003258	-3.002200	3.905000	-11.723000	20.807832	0.000453	20.695928
8.006153	-2.999500	3.901800	-11.703000	20.840018	0.000451	20.698717
9.008902	-2.994700	3.901700	-11.683000	20.829938	0.000450	20.688161
10.004302	-3.009800	3.898400	-11.733000	20.850017	0.000451	20.700656
11.005978	-3.001700	3.898000	-11.700000	20.833749	0.000451	20.683911
12.005621	-3.006000	3.896600	-11.712000	20.861796	0.000449	20.691572
13.007353	-2.977900	3.896200	-11.602000	20.854358	0.000450	20.702152
14.009821	-2.998800	3.893400	-11.674000	20.874345	0.000448	20.692742
15.008526	-3.002800	3.893500	-11.691000	20.873274	0.000449	20.702103
16.006830	-2.994100	3.892500	-11.653000	20.887718	0.000447	20.698056
17.006193	-2.999100	3.891900	-11.671000	20.874647	0.000447	20.695415
18.009040	-3.012100	3.890200	-11.717000	20.901868	0.000447	20.690870
19.006948	-3.012800	3.889500	-11.717000	20.918708	0.000448	20.708661
20.014966	-3.003900	3.889900	-11.683000	20.923677	0.000445	20.702724
21.006379	-3.000300	3.889100	-11.668000	20.918160	0.000446	20.708113
22.008300	-3.015100	3.886600	-11.717000	20.920211	0.000445	20.702577
23.007132	-3.014500	3.886700	-11.715000	20.952720	0.000446	20.699528
24.006953	-3.007000	3.886000	-11.684000	20.958138	0.000445	20.719174
25.009377	-3.001400	3.885500	-11.661000	20.950978	0.000444	20.702054
26.010993	-3.003100	3.883800	-11.663000	20.970328	0.000444	20.721407
27.007622	-3.011700	3.884900	-11.699000	20.977544	0.000445	20.712029
28.008599	-2.999500	3.882900	-11.646000	20.985653	0.000444	20.701646
29.011621	-2.985100	3.882600	-11.589000	21.009953	0.000443	20.718840
30.012946	-2.999400	3.882500	-11.644000	21.026293	0.000443	20.714319
31.012770	-2.990200	3.882500	-11.609000	21.008900	0.000445	20.716838
32.009602	-2.981800	3.883200	-11.578000	21.013770	0.000442	20.703216
33.008882	-2.982000	3.882200	-11.576000	21.020702	0.000441	20.710624
34.008507	-2.967700	3.882800	-11.522000	21.035521	0.000443	20.719757
35.011120	-2.985000	3.880500	-11.583000	21.042934	0.000441	20.719110
36.011545	-2.988700	3.881700	-11.601000	21.049792	0.000441	20.720280
37.015734	-3.014500	3.879700	-11.694000	21.067405	0.000440	20.733631
38.014497	-3.007600	3.879300	-11.666000	21.056853	0.000441	20.695573
39.013964	-3.008600	3.879700	-11.672000	21.066180	0.000441	20.716283
40.014904	-3.016100	3.878000	-11.695000	21.074091	0.000441	20.716609
41.017714	-3.006400	3.879600	-11.663000	21.077255	0.000439	20.728784
42.018341	-3.002200	3.877700	-11.641000	21.096167	0.000441	20.729209
43.016107	-2.982600	3.877600	-11.565000	21.110282	0.000438	20.722465
44.015983	-2.980200	3.877100	-11.554000	21.117049	0.000442	20.709317
45.018709	-3.014800	3.876300	-11.686000	21.112709	0.000440	20.736746
46.018425	-2.998100	3.876000	-11.619000	21.146659	0.000438	20.722342
47.020473	-2.992400	3.877400	-11.602000	21.133934	0.000440	20.705819
48.017169	-2.982600	3.876400	-11.560000	21.138724	0.000439	20.706817
49.017404	-2.979300	3.876800	-11.549000	21.142498	0.000440	20.742837
50.019425	-2.994400	3.876500	-11.606000	21.155296	0.000440	20.725292
51.018816	-2.990400	3.874900	-11.586000	21.190716	0.000439	20.732749
52.021754	-2.979600	3.875900	-11.548000	21.203398	0.000439	20.727891
53.017178	-2.993000	3.874900	-11.596000	21.190797	0.000438	20.755116
54.017134	-3.007100	3.875000	-11.652000	21.194849	0.000438	20.740677
55.016865	-3.010900	3.874400	-11.665000	21.206544	0.000437	20.731039
56.018415	-3.021400	3.873800	-11.704000	21.213875	0.000438	20.719405
57.022719	-3.006700	3.875300	-11.650000	21.247282	0.000438	20.726272
58.020752	-2.996900	3.874800	-11.610000	21.244993	0.000437	20.736785
59.016815	-2.979800	3.873300	-11.541000	21.273553	0.000439	20.739753
60.016613	-3.002800	3.873300	-11.630000	21.269319	0.000440	20.731724
61.018190	-3.019400	3.873100	-11.694000	21.267596	0.000440	20.732844
62.018686	-2.981200	3.874300	-11.549000	21.285262	0.000437	20.737716
63.018912	-3.015200	3.871400	-11.671000	21.274786	0.000437	20.733399
64.019704	-2.981900	3.873700	-11.550000	21.284893	0.000440	20.725967
65.018126	-3.035200	3.871600	-11.750000	21.283872	0.000439	20.749128
66.020117	-3.026300	3.870700	-11.713000	21.320618	0.000441	20.738475
67.021921	-2.994900	3.872300	-11.595000	21.319172	0.000440	20.748882
68.023841	-3.012200	3.872100	-11.663000	21.297641	0.000437	20.743936
69.020425	-3.009900	3.872500	-11.655000	21.323616	0.000440	20.726775
70.019694	-2.991100	3.873300	-11.585000	21.349276	0.000440	20.724945
71.019642	-3.000600	3.870900	-11.614000	21.342247	0.000438	20.760114
72.019368	-2.998300	3.870600	-11.603000	21.355486	0.000438	20.735426
73.020053	-3.022000	3.869800	-11.694000	21.372315	0.000440	20.736142
74.025932	-2.974300	3.871000	-11.512000	21.378968	0.000438	20.746592
75.020090	-3.009000	3.870800	-11.646000	21.390668	0.000439	20.761143
76.021494	-3.017400	3.870900	-11.680000	21.387972	0.000440	20.719089
77.023564	-3.006000	3.871500	-11.637000	21.377479	0.000441	20.741309
78.020858	-3.013400	3.870000	-11.660000	21.397931	0.000439	20.754186
79.022068	-3.019500	3.870000	-11.685000	21.408954	0.000440	20.733445
80.019526	-2.990300	3.870400	-11.573000	21.421005	0.000442	20.736494
81.019004	-3.010300	3.869200	-11.646000	21.417042	0.000442	20.746279
82.021053	-3.003300	3.869400	-11.620000	21.437247	0.000441	20.754168
83.022143	-3.012700	3.867900	-11.652000	21.433561	0.000441	20.743367
84.023586	-3.003500	3.867900	-11.616000	21.449323	0.000439	20.758664
85.023844	-2.997700	3.867000	-11.591000	21.472224	0.000443	20.748861
86.021220	-2.994000	3.868400	-11.581000	21.462746	0.000441	20.754551
87.024257	-2.986000	3.868500	-11.550000	21.475418	0.000441	20.747790
88.022107	-2.977500	3.869600	-11.521000	21.480630	0.000442	20.743522
89.021893	-2.993200	3.867400	-11.574000	21.498065	0.000441	20.755278
90.023074	-3.009900	3.869300	-11.645000	21.513882	0.000444	20.744551
91.024175	-3.013100	3.868100	-11.654000	21.520263	0.000440	20.741927
92.023535	-2.986800	3.868800	-11.554000	21.519168	0.000441	20.743202
93.025234	-3.006200	3.868200	-11.628000	21.546055	0.000442	20.729802
94.024292	-3.018400	3.867500	-11.673000	21.549821	0.000441	20.763444
95.033175	-3.021400	3.865800	-11.679000	21.562499	0.000441	20.767596
96.028481	-2.993100	3.867000	-11.573000	21.548677	0.000442	20.766567
97.024428	-2.975800	3.867500	-11.508000	21.591297	0.000442	20.750420
98.024230	-2.969000	3.868100	-11.483000	21.574387	0.000443	20.767638
99.025567	-2.982000	3.865900	-11.527000	21.608755	0.000441	20.757933
100.025888	-3.004600	3.865100	-11.612000	21.597545	0.000444	20.752405
101.029111	-2.997500	3.866400	-11.589000	21.630035	0.000444	20.753150
102.024711	-2.990900	3.866300	-11.562000	21.626799	0.000442	20.759869
103.026185	-3.019600	3.864700	-11.668000	21.623156	0.000443	20.764284
104.031991	-2.993700	3.864700	-11.569000	21.608892	0.000443	20.748587
105.027985	-3.005900	3.864700	-11.616000	21.641635	0.000443	20.748636
106.029708	-3.001600	3.864700	-11.600000	21.639167	0.000442	20.782678
107.027545	-3.008000	3.864300	-11.623000	21.648201	0.000444	20.756630
108.027278	-2.998700	3.864100	-11.586000	21.655185	0.000444	20.765043
109.027599	-3.007100	3.864100	-11.619000	21.687926	0.000445	20.769833
110.026724	-3.017100	3.864900	-11.660000	21.691397	0.000443	20.778049
111.033024	-3.000900	3.864400	-11.596000	21.684445	0.000445	20.760659
112.034194	-2.988600	3.863900	-11.546000	21.692099	0.000446	20.772113
113.028876	-2.987500	3.865100	-11.546000	21.692148	0.000445	20.776430
114.027871	-3.000600	3.863000	-11.589000	21.705014	0.000446	20.764649
115.029435	-3.005300	3.864500	-11.613000	21.737687	0.000445	20.776486
116.032015	-2.996000	3.864100	-11.576000	21.733872	0.000443	20.754650
117.029304	-2.999800	3.863700	-11.589000	21.727787	0.000445	20.776535
118.031072	-3.011800	3.862100	-11.631000	21.736919	0.000445	20.771449
119.032675	-3.003700	3.864500	-11.607000	21.758017	0.000448	20.771702
120.030567	-3.014000	3.863600	-11.643000	21.748682	0.000449	20.763782
121.032783	-3.004100	3.863600	-11.606000	21.753851	0.000450	20.772275
122.033097	-3.012700	3.862700	-11.635000	21.764976	0.000447	20.773451
123.032809	-2.986000	3.863500	-11.536000	21.775258	0.000448	20.772837
124.033056	-3.010800	3.862100	-11.628000	21.788221	0.000448	20.771586
125.034469	-3.002600	3.861800	-11.595000	21.817569	0.000448	20.777726
126.038472	-3.009200	3.860800	-11.617000	21.822053	0.000449	20.774154
127.040936	-3.004100	3.861600	-11.599000	21.834174	0.000448	20.768267
128.035074	-3.005700	3.861100	-11.605000	21.836795	0.000449	20.779426
129.035616	-3.007200	3.860900	-11.609000	21.837367	0.000449	20.775731
130.034476	-3.001500	3.861400	-11.589000	21.838550	0.000449	20.780708
131.035517	-3.004500	3.861100	-11.599000	21.870142	0.000450	20.779612
132.037407	-3.011300	3.861800	-11.627000	21.846831	0.000449	20.773824
133.037154	-3.009600	3.860300	-11.618000	21.877795	0.000448	20.773522
134.036860	-3.011800	3.860700	-11.627000	21.873188	0.000451	20.787403
135.039011	-3.012800	3.860200	-11.628000	21.878047	0.000450	20.782784
136.036685	-2.998300	3.860200	-11.572000	21.875409	0.000451	20.795316
137.041167	-3.001500	3.860300	-11.585000	21.890690	0.000452	20.775524
138.037077	-2.998200	3.859400	-11.570000	21.912266	0.000451	20.786690
139.036559	-2.998100	3.860400	-11.573000	21.922744	0.000452	20.792910
140.036585	-2.986300	3.859500	-11.524000	21.926933	0.000453	20.791414
141.037205	-2.982500	3.860400	-11.513000	21.938744	0.000452	20.795649
142.034881	-3.007700	3.858400	-11.604000	21.939053	0.000451	20.804019
143.038380	-3.018600	3.859100	-11.648000	21.965972	0.000452	20.791136
144.037273	-3.018700	3.858000	-11.644000	21.962818	0.000453	20.802204
145.036475	-2.994000	3.859300	-11.554000	21.978442	0.000455	20.782756
146.041317	-3.000100	3.859100	-11.577000	21.974961	0.000452	20.802506
147.041844	-3.007400	3.858100	-11.602000	21.985848	0.000455	20.784955
148.042701	-3.007800	3.856300	-11.598000	21.977680	0.000456	20.800012
149.038454	-2.998700	3.858700	-11.570000	22.003928	0.000455	20.809692
150.038539	-3.006000	3.857100	-11.593000	21.992364	0.000454	20.805702
151.040261	-3.004800	3.858100	-11.592000	22.013808	0.000455	20.804409
152.041337	-3.009600	3.856900	-11.607000	22.033228	0.000456	20.809151
153.042474	-2.986700	3.856200	-11.517000	22.045616	0.000455	20.783146
154.040668	-2.960400	3.858300	-11.421000	22.047788	0.000457	20.789114
155.040901	-2.994700	3.856700	-11.549000	22.062127	0.000457	20.781657
156.042015	-2.997500	3.856100	-11.558000	22.085507	0.000454	20.795106
157.043714	-3.007900	3.856500	-11.599000	22.066513	0.000456	20.808333
158.041644	-3.005300	3.855800	-11.587000	22.065541	0.000461	20.798351
159.042458	-3.001400	3.856900	-11.575000	22.063482	0.000460	20.789651
160.043495	-3.015100	3.856600	-11.627000	22.077119	0.000458	20.793820
161.043544	-2.997400	3.855700	-11.555000	22.076719	0.000458	20.806696
162.044130	-3.016800	3.854800	-11.629000	22.091833	0.000460	20.826094
163.042808	-2.992800	3.854600	-11.534000	22.085325	0.000460	20.810570
164.047184	-2.985900	3.856700	-11.515000	22.118632	0.000460	20.803138
165.045806	-2.999700	3.854900	-11.563000	22.114696	0.000459	20.799198
166.043941	-2.998000	3.855100	-11.557000	22.127557	0.000458	20.812548
167.043809	-2.996500	3.855200	-11.551000	22.127238	0.000462	20.817444
168.044175	-3.005500	3.853100	-11.579000	22.143919	0.000459	20.800480
169.043683	-2.984100	3.854900	-11.502000	22.145291	0.000461	20.801853
170.047607	-3.004800	3.854400	-11.581000	22.156706	0.000462	20.809015
171.043828	-3.010300	3.853000	-11.598000	22.178702	0.000462	20.801165
172.047774	-3.008100	3.853500	-11.590000	22.159531	0.000463	20.805204
173.046781	-3.018000	3.852500	-11.626000	22.200462	0.000464	20.803985
174.045044	-2.991200	3.853700	-11.526000	22.208938	0.000464	20.807255
175.049918	-2.988900	3.854100	-11.518000	22.199350	0.000464	20.783906
176.046062	-3.025700	3.853200	-11.657000	22.194011	0.000464	20.802742
177.046634	-2.992500	3.853900	-11.532000	22.177222	0.000461	20.790674
178.047056	-3.010200	3.854100	-11.600000	22.191749	0.000463	20.781985
179.046258	-3.011300	3.853600	-11.603000	22.220546	0.000464	20.772885
180.048858	-2.999100	3.853400	-11.556000	22.225387	0.000465	20.798595
181.047342	-2.989000	3.853400	-11.517000	22.229642	0.000464	20.779621
182.048058	-2.984400	3.853300	-11.499000	22.235903	0.000464	20.792055
183.049444	-2.969400	3.852300	-11.438000	22.264667	0.000467	20.786716
184.048291	-2.996600	3.852900	-11.545000	22.271729	0.000466	20.778614
185.052877	-2.998400	3.851600	-11.548000	22.248272	0.000467	20.775041
186.049993	-3.001800	3.850300	-11.557000	22.258592	0.000466	20.800548
187.050475	-3.004700	3.852100	-11.573000	22.269982	0.000465	20.779709
188.050337	-3.005600	3.850900	-11.573000	22.286710	0.000468	20.767536
189.051283	-3.010200	3.850500	-11.590000	22.283918	0.000468	20.778017
190.049996	-2.990700	3.851400	-11.517000	22.305301	0.000469	20.774297
191.053384	-2.989300	3.850000	-11.508000	22.305504	0.000467	20.781139
192.050511	-3.003300	3.850100	-11.563000	22.313782	0.000470	20.768565
193.050298	-2.982000	3.850200	-11.480000	22.318893	0.000469	20.767044
194.051359	-3.000100	3.849000	-11.546000	22.339549	0.000469	20.766865
195.049424	-3.028700	3.849600	-11.659000	22.331801	0.000472	20.765745
196.055914	-3.015300	3.849900	-11.606000	22.342316	0.000468	20.780542
197.057292	-2.988100	3.849700	-11.502000	22.355256	0.000469	20.772162
198.050578	-3.023500	3.848600	-11.635000	22.353060	0.000469	20.769963
199.051661	-3.027300	3.849400	-11.652000	22.377405	0.000471	20.758305
200.053821	-3.005000	3.848900	-11.565000	22.374343	0.000470	20.787482
201.053738	-2.999700	3.848500	-11.544000	22.384262	0.000471	20.768965
202.054600	-3.006600	3.848800	-11.571000	22.368328	0.000472	20.782881
203.052974	-3.014200	3.847000	-11.595000	22.385675	0.000472	20.753311
204.057114	-2.985900	3.847600	-11.488000	22.397439	0.000474	20.769359
205.054502	-3.012500	3.848300	-11.592000	22.365715	0.000471	20.744702
206.058800	-3.005000	3.847000	-11.559000	22.383381	0.000474	20.777093
207.056487	-3.007900	3.846600	-11.569000	22.403335	0.000474	20.743019
208.054788	-3.016400	3.846600	-11.602000	22.399399	0.000473	20.780805
209.055152	-3.007400	3.847600	-11.571000	22.411408	0.000474	20.766278
210.055539	-2.997600	3.847100	-11.531000	22.405972	0.000475	20.745186
211.055876	-2.995400	3.847200	-11.522000	22.430021	0.000475	20.762158
212.057582	-2.999900	3.848100	-11.544000	22.440561	0.000474	20.771764
213.055812	-3.020000	3.845800	-11.613000	22.457076	0.000477	20.748000
214.057442	-3.020200	3.844300	-11.610000	22.459247	0.000474	20.755390
215.057294	-3.030700	3.844400	-11.650000	22.467394	0.000476	20.766394
216.059253	-3.017700	3.846400	-11.606000	22.479083	0.000476	20.778575
217.061987	-3.009300	3.845500	-11.570000	22.505239	0.000477	20.765888
218.062959	-2.997700	3.844500	-11.524000	22.504839	0.000477	20.758375
219.059619	-3.023100	3.844300	-11.621000	22.507900	0.000478	20.761441
220.060116	-3.016700	3.844500	-11.597000	22.481110	0.000477	20.761638
221.063361	-2.989600	3.843500	-11.489000	22.512554	0.000476	20.763731
222.062626	-3.017300	3.844700	-11.599000	22.509892	0.000480	20.741150
223.061548	-2.996600	3.844700	-11.519000	22.526536	0.000478	20.742646
224.061034	-3.022100	3.843200	-11.614000	22.507044	0.000478	20.753471
225.059308	-2.987700	3.844600	-11.485000	22.532512	0.000481	20.748157
226.063664	-2.992400	3.843900	-11.502000	22.562461	0.000480	20.755867
227.061359	-2.996300	3.844500	-11.518000	22.560111	0.000481	20.740237
228.068061	-3.027000	3.842700	-11.630000	22.549924	0.000481	20.749948
229.063536	-2.988500	3.844000	-11.487000	22.557646	0.000482	20.725913
230.062214	-3.004200	3.842900	-11.544000	22.577463	0.000481	20.749081
231.061669	-3.012500	3.842600	-11.574000	22.569751	0.000480	20.763169
232.065009	-2.988100	3.842100	-11.479000	22.598328	0.000481	20.742003
233.062777	-2.992000	3.841600	-11.494000	22.594639	0.000482	20.739256
234.065084	-2.978800	3.841000	-11.440000	22.635351	0.000484	20.766284
235.062506	-2.983000	3.841900	-11.460000	22.621265	0.000483	20.757865
236.062106	-2.982700	3.840600	-11.455000	22.636568	0.000486	20.757545
237.066696	-2.971000	3.841400	-11.411000	22.615633	0.000483	20.760759
238.063624	-3.001500	3.840300	-11.526000	22.641516	0.000483	20.740215
239.065054	-2.987200	3.840900	-11.472000	22.621836	0.000483	20.744686
240.064290	-2.995500	3.841000	-11.505000	22.639320	0.000486	20.738016
241.063613	-2.988500	3.839500	-11.472000	22.650804	0.000486	20.749519
242.064886	-3.001400	3.840000	-11.524000	22.664950	0.000485	20.746144
243.065460	-2.975800	3.841300	-11.430000	22.686480	0.000487	20.736889
244.066858	-2.994900	3.840000	-11.500000	22.675862	0.000486	20.739530
245.067978	-3.023500	3.838600	-11.605000	22.686890	0.000487	20.740619
246.065897	-2.990800	3.839100	-11.480000	22.682131	0.000487	20.723998
247.065655	-3.007600	3.837600	-11.541000	22.682654	0.000487	20.753920
248.065973	-2.993800	3.839000	-11.492000	22.690775	0.000486	20.733604
249.065473	-3.018600	3.837100	-11.582000	22.686963	0.000487	20.719354
250.065659	-3.012800	3.838500	-11.564000	22.663042	0.000487	20.745655
251.066300	-3.002500	3.838200	-11.523000	22.691511	0.000487	20.741454
252.066300	-3.018500	3.836600	-11.579000	22.703597	0.000488	20.739336
253.068756	-3.001300	3.838100	-11.518000	22.714011	0.000489	20.747397
254.065724	-2.997700	3.837800	-11.503000	22.745775	0.000491	20.730376
255.067934	-2.987500	3.837400	-11.463000	22.749783	0.000490	20.707837
256.067141	-3.018800	3.835200	-11.576000	22.748436	0.000490	20.745371
257.067219	-3.018200	3.837000	-11.580000	22.760312	0.000490	20.734981
258.066761	-2.993400	3.836500	-11.483000	22.749572	0.000491	20.733706
259.068648	-2.994600	3.837400	-11.490000	22.765911	0.000489	20.744858
260.068211	-3.006400	3.836000	-11.532000	22.756371	0.000491	20.731033
261.070689	-2.998200	3.836000	-11.500000	22.782152	0.000493	20.716080
262.071128	-3.024400	3.836200	-11.601000	22.802676	0.000492	20.747548
263.072572	-3.026200	3.835900	-11.606000	22.797298	0.000494	20.739789
264.074191	-2.984000	3.836000	-11.444000	22.790983	0.000493	20.731566
265.074119	-2.982800	3.834900	-11.437000	22.819081	0.000493	20.726997
266.074351	-2.987800	3.834400	-11.456000	22.801470	0.000495	20.740175
267.072650	-3.003800	3.833900	-11.516000	22.811557	0.000495	20.725623
268.072997	-2.987800	3.833700	-11.453000	22.813100	0.000493	20.719582
269.073290	-3.003600	3.835300	-11.518000	22.856294	0.000494	20.732982
270.076895	-3.004200	3.833100	-11.514000	22.858776	0.000496	20.736891
271.078195	-3.005600	3.832800	-11.519000	22.850453	0.000495	20.745623
272.073961	-2.993500	3.833200	-11.474000	22.847718	0.000497	20.737667
