LabVIEW Measurement	
Writer_Version	2
Reader_Version	2
Separator	Tab
Decimal_Separator	.
Multi_Headings	No
X_Columns	One
Time_Pref	Absolute
Operator	admin
Description	Clolumns are: time, Current, Voltage, Power, Battery Temp, and Chamber Temp
Date	2024/08/16
Time	13:07:17.8513970375061035156
***End_of_Header***	
	
Channels	6						
Samples	1	1	1	1	1	1	
Date	2024/09/13	2024/09/13	2024/09/13	2024/09/13	2024/09/13	2024/09/13	
Time	21:01:06.1250638961791992187	21:01:06.1317753791809082031	21:01:06.1397733688354492187	21:01:06.10906982421875	21:01:06.10906982421875	21:01:06.10906982421875	
X_Dimension	Time	Time	Time	Time	Time	Time	
X0	0.0000000000000000E+0	0.0000000000000000E+0	0.0000000000000000E+0	0.0000000000000000E+0	0.0000000000000000E+0	0.0000000000000000E+0	
Delta_X	1.000000	1.000000	1.000000	1.000000	1.000000	1.000000	
***End_of_Header***							
X_Value	Untitled	Untitled 1	Untitled 2	Untitled 3	Untitled 4	Untitled 5	Comment
0.000000	-0.002598	4.087500	-0.010501	20.759280	0.000469	20.828506
0.999033	-2.999200	3.918100	-11.751000	20.770512	0.000470	20.824565
2.010624	-2.977400	3.914000	-11.653000	20.765642	0.000469	20.821118
2.999843	-3.001100	3.908000	-11.726000	20.785527	0.000468	20.813028
4.005602	-2.991900	3.903500	-11.677000	20.791638	0.000466	20.832414
5.002045	-3.008200	3.901100	-11.734000	20.812273	0.000468	20.813221
6.001714	-2.999800	3.898600	-11.694000	20.797002	0.000467	20.815967
7.013851	-3.015900	3.896600	-11.751000	20.811449	0.000464	20.816190
8.002127	-3.018100	3.894200	-11.752000	20.823895	0.000465	20.826266
9.001537	-3.001800	3.892100	-11.682000	20.807073	0.000466	20.833151
10.000995	-2.995900	3.891600	-11.657000	20.831749	0.000464	20.806145
11.003326	-3.011200	3.888800	-11.709000	20.841059	0.000464	20.805972
12.002918	-3.014300	3.888700	-11.721000	20.846818	0.000462	20.825956
13.003569	-2.981100	3.887100	-11.587000	20.852582	0.000461	20.808013
14.003560	-2.982500	3.885600	-11.588000	20.857669	0.000460	20.810255
15.003737	-3.004500	3.883600	-11.667000	20.861932	0.000461	20.834906
16.004645	-2.993000	3.883000	-11.621000	20.873740	0.000458	20.791240
17.003427	-2.979000	3.883400	-11.567000	20.875479	0.000459	20.810523
18.006758	-2.999500	3.882200	-11.644000	20.899709	0.000461	20.802038
19.004755	-2.995600	3.881000	-11.625000	20.905823	0.000457	20.813842
20.005979	-3.020900	3.878500	-11.715000	20.923780	0.000459	20.820422
21.006210	-3.016000	3.878900	-11.698000	20.901971	0.000457	20.817103
22.007427	-3.000700	3.879100	-11.639000	20.922482	0.000459	20.831450
23.004889	-3.007500	3.877900	-11.662000	20.912447	0.000456	20.810035
24.005455	-3.016300	3.877200	-11.694000	20.941115	0.000456	20.807413
25.005274	-2.997800	3.877700	-11.624000	20.952642	0.000457	20.806613
26.004536	-2.996100	3.875300	-11.610000	20.956958	0.000455	20.811878
27.005240	-3.001500	3.875700	-11.632000	20.969082	0.000453	20.813572
28.004379	-3.022500	3.873200	-11.706000	20.982208	0.000456	20.802519
29.003991	-3.015400	3.873400	-11.679000	20.995853	0.000454	20.808105
30.003706	-2.988300	3.874900	-11.578000	21.002515	0.000454	20.805285
31.004581	-2.993400	3.873900	-11.595000	20.996347	0.000453	20.814289
32.004807	-2.991600	3.873300	-11.586000	21.009576	0.000453	20.818037
33.004640	-2.997200	3.873700	-11.609000	21.010095	0.000452	20.807651
34.003955	-2.993600	3.872000	-11.590000	21.039689	0.000450	20.799793
35.001846	-2.976700	3.871100	-11.522000	21.023897	0.000452	20.810076
36.006331	-3.004700	3.870300	-11.629000	21.045901	0.000453	20.831610
37.003427	-2.993700	3.871700	-11.590000	21.041561	0.000451	20.793604
38.003706	-3.015700	3.869200	-11.667000	21.036054	0.000453	20.799002
39.005712	-3.014900	3.869700	-11.666000	21.057860	0.000450	20.808959
40.007603	-3.021400	3.867700	-11.685000	21.075326	0.000449	20.788022
41.008793	-3.007000	3.867500	-11.628000	21.069988	0.000449	20.794062
42.011307	-2.974100	3.869400	-11.507000	21.087581	0.000451	20.790797
43.009680	-2.977700	3.870400	-11.523000	21.093373	0.000450	20.798487
44.007407	-3.001300	3.867000	-11.605000	21.097891	0.000451	20.796842
45.009604	-3.004800	3.867800	-11.621000	21.099915	0.000448	20.794125
46.008847	-2.989100	3.867800	-11.560000	21.113765	0.000451	20.789013
47.013805	-2.982100	3.868500	-11.536000	21.118723	0.000449	20.809145
48.021039	-3.007600	3.866200	-11.627000	21.139086	0.000450	20.802487
49.007058	-2.982100	3.867600	-11.533000	21.145174	0.000448	20.799568
50.007297	-2.998400	3.865900	-11.590000	21.162341	0.000446	20.804887
51.010563	-2.982300	3.866000	-11.529000	21.166459	0.000449	20.797152
52.008611	-3.013500	3.864700	-11.646000	21.204906	0.000447	20.793887
53.008751	-2.995000	3.865900	-11.577000	21.176067	0.000447	20.802022
54.022067	-3.011100	3.864900	-11.636000	21.191442	0.000449	20.788478
55.007055	-2.996900	3.864700	-11.581000	21.212099	0.000447	20.804876
56.010190	-3.002300	3.863900	-11.600000	21.232505	0.000449	20.788779
57.011051	-2.992100	3.864100	-11.560000	21.228969	0.000446	20.781923
58.014629	-3.003400	3.864700	-11.606000	21.234060	0.000448	20.775161
59.010451	-3.002200	3.862900	-11.596000	21.228179	0.000448	20.765959
60.015381	-2.969700	3.864800	-11.477000	21.243222	0.000446	20.783379
61.010102	-3.000500	3.863200	-11.591000	21.270791	0.000447	20.799105
62.009867	-3.018500	3.862900	-11.659000	21.255501	0.000445	20.781437
63.013165	-2.985900	3.863900	-11.536000	21.278947	0.000447	20.768383
64.009417	-3.009800	3.862200	-11.623000	21.274419	0.000446	20.776181
65.011798	-3.014600	3.861500	-11.640000	21.286070	0.000447	20.784518
66.014125	-3.020600	3.861900	-11.665000	21.320915	0.000449	20.782395
67.009728	-3.016000	3.862100	-11.648000	21.307076	0.000445	20.801267
68.007662	-3.030600	3.861500	-11.701000	21.318525	0.000444	20.793754
69.013080	-3.025700	3.862200	-11.684000	21.338761	0.000447	20.759945
70.011175	-3.010600	3.862000	-11.625000	21.323723	0.000447	20.780462
71.012024	-2.955800	3.862100	-11.415000	21.360817	0.000447	20.769211
72.012640	-3.002500	3.860700	-11.591000	21.350272	0.000448	20.774307
73.010562	-3.020300	3.861600	-11.663000	21.355436	0.000447	20.788483
74.013565	-3.016100	3.861100	-11.644000	21.364795	0.000448	20.772242
75.016572	-3.011800	3.860900	-11.627000	21.361503	0.000448	20.784121
76.012805	-2.989800	3.860900	-11.541000	21.377838	0.000447	20.762058
77.011397	-2.995600	3.860900	-11.565000	21.388945	0.000447	20.769377
78.015306	-3.000100	3.860400	-11.581000	21.399692	0.000446	20.773966
79.012535	-3.006000	3.860400	-11.603000	21.430278	0.000449	20.769480
80.013412	-2.991000	3.859700	-11.543000	21.414116	0.000450	20.802622
81.017205	-3.015200	3.859100	-11.635000	21.430830	0.000449	20.752015
82.014359	-2.996000	3.860100	-11.565000	21.429083	0.000450	20.762121
83.012519	-2.983400	3.859500	-11.513000	21.447866	0.000449	20.760051
84.016487	-2.996900	3.858800	-11.563000	21.427913	0.000449	20.766166
85.014668	-3.000700	3.858300	-11.576000	21.462008	0.000450	20.766615
86.023088	-2.994500	3.859500	-11.556000	21.458868	0.000449	20.768689
87.016078	-2.977600	3.859000	-11.488000	21.451311	0.000448	20.767766
88.012723	-2.988200	3.859500	-11.531000	21.460039	0.000451	20.780766
89.014128	-2.999900	3.858500	-11.574000	21.490697	0.000447	20.782993
90.015345	-3.007200	3.859700	-11.606000	21.471737	0.000449	20.772083
91.012679	-3.016900	3.857200	-11.636000	21.510500	0.000448	20.769618
92.016026	-3.009700	3.858500	-11.612000	21.515940	0.000449	20.772690
93.017148	-3.001100	3.858400	-11.578000	21.497261	0.000452	20.771069
94.014529	-2.992700	3.858200	-11.545000	21.514972	0.000449	20.779308
95.013629	-3.003300	3.858300	-11.587000	21.531384	0.000451	20.763487
96.017763	-3.006200	3.858500	-11.598000	21.563206	0.000450	20.764984
97.013114	-3.008100	3.857100	-11.602000	21.555876	0.000451	20.763339
98.014736	-3.008100	3.856600	-11.599000	21.555876	0.000448	20.760020
99.020888	-3.004800	3.855800	-11.585000	21.561715	0.000450	20.754483
100.012843	-2.999100	3.857100	-11.567000	21.584764	0.000449	20.749573
101.015162	-2.979400	3.857600	-11.491000	21.583170	0.000451	20.755090
102.021211	-3.008700	3.856100	-11.602000	21.592819	0.000454	20.790825
103.015645	-2.990800	3.857100	-11.534000	21.634846	0.000453	20.777405
104.015670	-2.995500	3.856900	-11.552000	21.635196	0.000451	20.773962
105.021371	-2.989400	3.855700	-11.526000	21.613326	0.000453	20.766775
106.015040	-2.979400	3.855600	-11.486000	21.644030	0.000452	20.754827
107.015403	-2.999200	3.855600	-11.563000	21.662933	0.000453	20.750036
108.020004	-2.983600	3.856100	-11.504000	21.638398	0.000452	20.749665
109.015961	-3.008300	3.854800	-11.595000	21.657173	0.000450	20.745694
110.015040	-3.021400	3.853200	-11.640000	21.652839	0.000452	20.753685
111.019176	-3.005200	3.854400	-11.582000	21.651694	0.000451	20.747798
112.018308	-2.995600	3.854200	-11.545000	21.652543	0.000452	20.753863
113.021092	-2.997700	3.853700	-11.552000	21.688551	0.000453	20.752915
114.018083	-3.010500	3.853600	-11.600000	21.713494	0.000454	20.734728
115.018245	-2.999500	3.854100	-11.560000	21.712389	0.000452	20.766340
116.019420	-3.007600	3.853300	-11.588000	21.719727	0.000454	20.765623
117.019674	-3.011000	3.853000	-11.600000	21.720151	0.000453	20.751823
118.019922	-2.988800	3.854000	-11.518000	21.761748	0.000453	20.749358
119.019458	-3.015100	3.853200	-11.616000	21.753551	0.000453	20.758223
120.021287	-3.000100	3.853000	-11.559000	21.759858	0.000453	20.746517
121.022374	-2.988900	3.853100	-11.517000	21.746815	0.000455	20.750059
122.017731	-2.979700	3.852600	-11.478000	21.776217	0.000453	20.741079
123.020056	-2.981300	3.854100	-11.489000	21.774598	0.000456	20.734243
124.022243	-3.003200	3.853100	-11.570000	21.789087	0.000455	20.734519
125.020910	-2.994000	3.851600	-11.531000	21.787419	0.000455	20.750868
126.022822	-3.020800	3.850900	-11.632000	21.819386	0.000456	20.733076
127.019265	-3.003700	3.850900	-11.565000	21.813533	0.000456	20.726270
128.023726	-3.001400	3.851600	-11.559000	21.835300	0.000455	20.741419
129.021582	-3.012200	3.851700	-11.601000	21.817777	0.000456	20.750907
130.020334	-2.991900	3.852500	-11.526000	21.822139	0.000455	20.715442
131.022014	-2.992300	3.850900	-11.521000	21.833464	0.000458	20.744797
132.023401	-2.993900	3.851300	-11.530000	21.830474	0.000457	20.732794
133.021569	-2.975000	3.851000	-11.456000	21.826560	0.000456	20.719867
134.023592	-2.995900	3.850900	-11.537000	21.850898	0.000456	20.729529
135.027786	-2.988000	3.850700	-11.505000	21.867256	0.000457	20.752541
136.021667	-2.990900	3.851200	-11.518000	21.886954	0.000457	20.742860
137.022905	-2.995200	3.850500	-11.532000	21.900469	0.000456	20.730309
138.029487	-3.008600	3.849400	-11.581000	21.896980	0.000459	20.714013
139.024117	-2.999400	3.850900	-11.548000	21.881032	0.000458	20.724129
140.025638	-3.007300	3.849200	-11.575000	21.896447	0.000458	20.722014
141.025257	-3.001700	3.850500	-11.558000	21.901204	0.000459	20.718715
142.023341	-3.017400	3.848700	-11.612000	21.927113	0.000458	20.729478
143.024825	-3.020300	3.850000	-11.627000	21.915074	0.000458	20.699406
144.025627	-2.991600	3.849000	-11.513000	21.935126	0.000459	20.727067
145.024832	-3.018600	3.849000	-11.617000	21.954967	0.000459	20.731280
146.024051	-3.027600	3.847900	-11.649000	21.966542	0.000462	20.724375
147.025939	-3.033300	3.848100	-11.671000	21.987230	0.000462	20.734654
148.029952	-3.005300	3.847700	-11.563000	21.958494	0.000462	20.742872
149.026074	-3.016600	3.846800	-11.603000	21.982133	0.000461	20.734292
150.030095	-2.978900	3.849000	-11.464000	21.979789	0.000461	20.729575
151.028992	-2.986700	3.847600	-11.490000	22.002426	0.000462	20.715725
152.026200	-3.003000	3.847200	-11.553000	21.990091	0.000464	20.736569
153.026863	-2.984400	3.846900	-11.479000	21.996224	0.000460	20.731803
154.033442	-3.015600	3.847700	-11.602000	22.029083	0.000463	20.724868
155.031090	-2.993300	3.847000	-11.515000	22.025995	0.000462	20.715137
156.031921	-2.992100	3.846200	-11.507000	22.046041	0.000463	20.712919
157.030570	-2.983000	3.847400	-11.476000	22.052153	0.000464	20.712874
158.032658	-3.027900	3.844700	-11.640000	22.056717	0.000462	20.720762
159.032163	-3.019900	3.846300	-11.615000	22.077956	0.000461	20.708834
160.032163	-2.998700	3.846700	-11.533000	22.065972	0.000462	20.714855
161.035369	-2.991800	3.846800	-11.508000	22.077862	0.000466	20.708265
162.034410	-2.980900	3.846300	-11.464000	22.090250	0.000463	20.709288
163.036465	-2.977000	3.847000	-11.452000	22.095440	0.000464	20.729658
164.033166	-2.989200	3.846100	-11.496000	22.098410	0.000465	20.699438
165.033791	-2.990300	3.846100	-11.500000	22.079613	0.000463	20.712390
166.038099	-3.019700	3.844600	-11.609000	22.112796	0.000466	20.700090
167.040471	-3.006500	3.843700	-11.556000	22.108464	0.000465	20.716617
168.037226	-2.972200	3.845300	-11.427000	22.121429	0.000465	20.705889
169.037349	-2.990700	3.844900	-11.499000	22.129781	0.000465	20.706664
170.037617	-2.993000	3.844500	-11.506000	22.132870	0.000467	20.726827
171.039176	-3.003400	3.845300	-11.547000	22.129658	0.000466	20.695160
172.043984	-2.996600	3.844600	-11.519000	22.129371	0.000467	20.696296
173.037964	-2.996100	3.843200	-11.514000	22.153623	0.000465	20.714414
174.037023	-2.983500	3.844200	-11.468000	22.170525	0.000468	20.711894
175.043613	-3.005100	3.842900	-11.548000	22.175862	0.000469	20.693529
176.043924	-3.003100	3.842700	-11.540000	22.194608	0.000465	20.699970
177.043015	-2.997400	3.842700	-11.517000	22.183346	0.000470	20.706238
178.046985	-3.017800	3.842800	-11.596000	22.201120	0.000467	20.710284
179.043331	-3.012200	3.843200	-11.576000	22.206807	0.000469	20.698434
180.042099	-3.000500	3.842200	-11.528000	22.205387	0.000468	20.694640
181.045640	-2.997800	3.840800	-11.513000	22.208341	0.000469	20.710876
182.047488	-2.991800	3.843200	-11.497000	22.233958	0.000467	20.699540
183.043965	-2.995300	3.843600	-11.512000	22.248495	0.000470	20.700345
184.051336	-3.026300	3.839700	-11.619000	22.239202	0.000473	20.722335
185.045694	-2.998200	3.841300	-11.515000	22.228610	0.000472	20.716472
186.046748	-3.032100	3.841200	-11.646000	22.216974	0.000471	20.697233
187.047098	-3.001100	3.841200	-11.527000	22.258824	0.000471	20.697885
188.047757	-3.021800	3.841300	-11.607000	22.231955	0.000471	20.698957
189.046352	-3.010200	3.840800	-11.560000	22.228867	0.000473	20.708668
190.045836	-3.009300	3.840200	-11.556000	22.284948	0.000474	20.715509
191.046887	-3.004800	3.840300	-11.539000	22.312640	0.000474	20.714787
192.045374	-3.013000	3.839700	-11.568000	22.311273	0.000472	20.704409
193.052299	-3.022600	3.839500	-11.604000	22.333312	0.000474	20.728850
194.047581	-2.995300	3.839900	-11.501000	22.331541	0.000475	20.723283
195.050771	-2.989300	3.840300	-11.478000	22.319974	0.000473	20.708855
196.051863	-3.011900	3.838600	-11.561000	22.325464	0.000475	20.732846
197.046896	-2.993900	3.839000	-11.493000	22.325666	0.000474	20.707916
198.052273	-2.998400	3.839600	-11.511000	22.351088	0.000474	20.707768
199.053338	-3.019900	3.837600	-11.588000	22.347601	0.000476	20.715182
200.046769	-3.007300	3.837900	-11.541000	22.325745	0.000475	20.704202
201.049304	-2.983500	3.839400	-11.454000	22.342446	0.000476	20.694372
202.050632	-2.998000	3.837500	-11.505000	22.370684	0.000475	20.717909
203.048439	-2.987300	3.838300	-11.465000	22.401037	0.000477	20.726019
204.051636	-3.028200	3.838400	-11.623000	22.390719	0.000477	20.726592
205.052348	-3.001600	3.837300	-11.516000	22.406877	0.000476	20.701993
206.051158	-3.002200	3.837900	-11.521000	22.449091	0.000476	20.722932
207.050455	-3.008200	3.836000	-11.539000	22.428761	0.000476	20.721065
208.052509	-2.992000	3.838200	-11.483000	22.416302	0.000477	20.714752
209.050320	-3.018500	3.836800	-11.581000	22.424973	0.000479	20.719642
210.058940	-3.020900	3.836200	-11.587000	22.431079	0.000476	20.717222
211.052168	-2.997600	3.837100	-11.501000	22.430339	0.000478	20.700832
212.054403	-2.992900	3.836300	-11.480000	22.408485	0.000479	20.712613
213.050732	-3.004800	3.836900	-11.528000	22.416810	0.000480	20.725218
214.052869	-3.025300	3.834900	-11.600000	22.415488	0.000480	20.733378
215.053660	-3.004700	3.835800	-11.524000	22.457904	0.000481	20.707575
216.050653	-2.992100	3.836300	-11.479000	22.462786	0.000480	20.712465
217.059255	-3.012400	3.835300	-11.553000	22.472186	0.000484	20.717612
218.056480	-3.003600	3.835600	-11.520000	22.474825	0.000480	20.728315
219.054932	-2.995600	3.834700	-11.486000	22.476176	0.000481	20.701218
220.060750	-3.011400	3.835400	-11.549000	22.509964	0.000483	20.727471
221.056621	-2.996000	3.834500	-11.487000	22.511088	0.000483	20.733339
222.057635	-2.997100	3.834700	-11.493000	22.510960	0.000485	20.716140
223.059374	-3.005300	3.833500	-11.519000	22.522574	0.000484	20.728720
224.055042	-3.008500	3.834200	-11.535000	22.537029	0.000482	20.700521
225.056107	-3.001300	3.833400	-11.504000	22.539574	0.000484	20.721089
226.059329	-3.003200	3.833100	-11.511000	22.568724	0.000486	20.712825
227.074586	-3.031700	3.831700	-11.616000	22.541936	0.000486	20.708281
228.060738	-2.987900	3.834100	-11.455000	22.544648	0.000487	20.716688
229.062207	-3.003500	3.832100	-11.509000	22.559280	0.000487	20.711902
230.059762	-3.029200	3.831600	-11.606000	22.552652	0.000487	20.710479
231.061100	-2.988300	3.831700	-11.449000	22.593810	0.000487	20.724201
232.064378	-3.009800	3.832900	-11.535000	22.586812	0.000487	20.716718
233.062569	-2.987900	3.833000	-11.452000	22.614147	0.000489	20.736035
234.056954	-3.003500	3.832700	-11.510000	22.650894	0.000489	20.728271
235.059622	-3.005500	3.832100	-11.515000	22.636914	0.000489	20.724226
236.058172	-3.015100	3.830000	-11.547000	22.630134	0.000487	20.725969
237.060755	-3.014900	3.830400	-11.548000	22.627989	0.000489	20.712914
238.061922	-3.023400	3.830000	-11.579000	22.644138	0.000488	20.730988
239.059141	-3.019800	3.830600	-11.566000	22.633423	0.000490	20.713141
240.061816	-3.016400	3.830600	-11.553000	22.637679	0.000489	20.730681
241.060879	-2.988300	3.831000	-11.447000	22.655564	0.000490	20.713033
242.063093	-2.996200	3.829900	-11.474000	22.703897	0.000490	20.723514
243.060045	-3.003000	3.829700	-11.500000	22.687778	0.000491	20.741034
244.064063	-2.990300	3.829100	-11.449000	22.696545	0.000491	20.740807
245.060877	-2.998700	3.829000	-11.480000	22.711338	0.000490	20.739978
246.063143	-2.987800	3.830500	-11.444000	22.696619	0.000490	20.739933
247.064918	-2.998800	3.829400	-11.483000	22.698557	0.000494	20.749461
248.060967	-2.994100	3.829500	-11.465000	22.698030	0.000492	20.730914
249.063643	-3.027800	3.827500	-11.587000	22.708094	0.000493	20.736728
250.061906	-3.008100	3.827800	-11.512000	22.699618	0.000494	20.737246
251.060560	-3.004900	3.829300	-11.506000	22.731155	0.000492	20.747500
252.059054	-3.014600	3.828600	-11.541000	22.755818	0.000492	20.747550
253.064314	-2.988500	3.828800	-11.441000	22.775398	0.000491	20.745826
254.062891	-2.994000	3.828200	-11.461000	22.773204	0.000492	20.747896
255.063519	-2.984300	3.829000	-11.426000	22.764580	0.000493	20.738783
256.064506	-2.995600	3.827000	-11.463000	22.774121	0.000493	20.725580
257.062742	-2.976500	3.827800	-11.393000	22.781995	0.000492	20.733468
258.064653	-3.004400	3.827800	-11.499000	22.785308	0.000492	20.724458
259.063647	-3.012500	3.826600	-11.525000	22.774146	0.000495	20.727501
260.064538	-2.991100	3.826100	-11.443000	22.792956	0.000494	20.744448
261.062547	-2.995000	3.826000	-11.458000	22.804759	0.000496	20.750583
262.066473	-2.997300	3.826500	-11.468000	22.811287	0.000495	20.754277
263.063576	-3.015500	3.825700	-11.535000	22.829347	0.000496	20.731591
264.068787	-3.024000	3.824000	-11.562000	22.851814	0.000494	20.753626
265.067533	-3.003000	3.824900	-11.485000	22.861951	0.000496	20.754771
266.065397	-2.986900	3.825000	-11.424000	22.875425	0.000497	20.759261
267.067746	-3.005500	3.824200	-11.493000	22.864712	0.000496	20.752796
268.066120	-2.997200	3.824200	-11.462000	22.863489	0.000496	20.745407
269.065994	-3.001400	3.825600	-11.481000	22.859777	0.000498	20.773457
270.063281	-3.022600	3.823600	-11.556000	22.850779	0.000498	20.767762
271.065618	-2.959100	3.825800	-11.320000	22.871530	0.000497	20.756308
272.064446	-2.997000	3.823700	-11.459000	22.847486	0.000499	20.762092
