LabVIEW Measurement	
Writer_Version	2
Reader_Version	2
Separator	Tab
Decimal_Separator	.
Multi_Headings	No
X_Columns	One
Time_Pref	Absolute
Operator	admin
Description	Clolumns are: time, Current, Voltage, Power, Battery Temp, and Chamber Temp
Date	2024/08/16
Time	13:07:17.8513970375061035156
***End_of_Header***	
	
Channels	6						
Samples	1	1	1	1	1	1	
Date	2024/09/06	2024/09/06	2024/09/06	2024/09/06	2024/09/06	2024/09/06	
Time	21:22:19.6549487113952636719	21:22:19.6619625091552734375	21:22:19.6679568290710449219	21:22:19.6369023323059082031	21:22:19.6369023323059082031	21:22:19.6369023323059082031	
X_Dimension	Time	Time	Time	Time	Time	Time	
X0	0.0000000000000000E+0	0.0000000000000000E+0	0.0000000000000000E+0	0.0000000000000000E+0	0.0000000000000000E+0	0.0000000000000000E+0	
Delta_X	1.000000	1.000000	1.000000	1.000000	1.000000	1.000000	
***End_of_Header***							
X_Value	Untitled	Untitled 1	Untitled 2	Untitled 3	Untitled 4	Untitled 5	Comment
0.000000	0.012829	4.090300	0.052655	20.914220	0.000466	20.895256
0.997234	-3.023900	3.923400	-11.863000	20.902671	0.000466	20.900300
1.999432	-3.002900	3.917400	-11.763000	20.896557	0.000463	20.899876
2.999964	-2.997700	3.912500	-11.727000	20.924380	0.000461	20.899253
4.002530	-3.006100	3.909000	-11.750000	20.922186	0.000461	20.887576
5.000694	-2.994100	3.905900	-11.693000	20.922211	0.000462	20.903721
6.000849	-2.993200	3.904000	-11.684000	20.920664	0.000460	20.898855
7.003507	-3.012200	3.900500	-11.748000	20.928550	0.000461	20.885881
8.001831	-2.999800	3.898500	-11.693000	20.944072	0.000461	20.907566
9.008914	-2.983500	3.898400	-11.630000	20.953804	0.000458	20.907343
10.007164	-3.023900	3.896500	-11.782000	20.945670	0.000459	20.909639
11.002135	-2.995600	3.896500	-11.671000	20.953482	0.000456	20.901331
12.004074	-2.983900	3.893600	-11.616000	20.959670	0.000457	20.905622
13.003611	-3.005100	3.891700	-11.693000	20.971996	0.000456	20.916527
14.010535	-2.995400	3.891900	-11.657000	20.990361	0.000457	20.899335
15.004245	-2.992100	3.891100	-11.642000	20.990711	0.000456	20.914382
16.005187	-2.979300	3.889400	-11.586000	21.009671	0.000456	20.899208
17.005054	-2.999300	3.887000	-11.656000	21.029562	0.000455	20.914360
18.009853	-3.000400	3.886700	-11.661000	21.019329	0.000456	20.898910
19.003922	-2.991300	3.885900	-11.623000	21.029361	0.000453	20.919374
20.005999	-2.998400	3.885700	-11.649000	21.024397	0.000453	20.911091
21.004394	-3.021800	3.884800	-11.738000	21.034027	0.000453	20.925463
22.005599	-3.014200	3.883500	-11.705000	21.044057	0.000452	20.928856
23.006989	-2.991600	3.884500	-11.620000	21.060921	0.000453	20.916802
24.010160	-2.997500	3.883100	-11.639000	21.053111	0.000450	20.942178
25.010118	-3.000600	3.883300	-11.651000	21.071003	0.000454	20.920248
26.008943	-3.003200	3.881800	-11.658000	21.078436	0.000451	20.918200
27.011063	-3.001800	3.881000	-11.649000	21.079009	0.000451	20.912136
28.009770	-2.980800	3.882100	-11.571000	21.122896	0.000449	20.929953
29.010283	-3.011400	3.878300	-11.678000	21.100989	0.000451	20.922266
30.010929	-3.004200	3.880700	-11.657000	21.137516	0.000447	20.900484
31.013082	-3.004000	3.879400	-11.652000	21.122171	0.000449	20.917376
32.010430	-3.001200	3.877900	-11.637000	21.158571	0.000449	20.931026
33.013787	-2.990400	3.879000	-11.599000	21.141909	0.000446	20.935695
34.012399	-3.003900	3.878100	-11.648000	21.135496	0.000447	20.931177
35.010646	-2.997700	3.876700	-11.621000	21.168952	0.000446	20.925289
36.014922	-3.007400	3.877400	-11.660000	21.164485	0.000447	20.923666
37.012879	-3.014200	3.874100	-11.676000	21.185666	0.000447	20.925413
38.013934	-3.004400	3.876000	-11.644000	21.179380	0.000447	20.934297
39.016271	-2.964800	3.876100	-11.489000	21.192056	0.000445	20.922323
40.012999	-3.023100	3.874800	-11.713000	21.201682	0.000446	20.923418
41.014126	-3.008700	3.874500	-11.656000	21.216701	0.000448	20.925165
42.013302	-3.005300	3.873600	-11.640000	21.222215	0.000447	20.925940
43.013453	-3.016900	3.873000	-11.683000	21.237856	0.000447	20.923569
44.013972	-3.023400	3.873000	-11.709000	21.261505	0.000449	20.930157
45.015974	-2.986700	3.872600	-11.565000	21.261282	0.000446	20.931356
46.018394	-2.986300	3.873300	-11.566000	21.251026	0.000443	20.937216
47.016656	-2.994700	3.871400	-11.592000	21.285079	0.000448	20.949945
48.016214	-2.998600	3.872100	-11.611000	21.272927	0.000445	20.932100
49.019014	-3.010300	3.872200	-11.655000	21.270086	0.000447	20.937792
50.020278	-2.994900	3.871800	-11.595000	21.275749	0.000447	20.919752
51.015860	-3.015100	3.870700	-11.669000	21.317556	0.000448	20.928385
52.018834	-2.991600	3.871200	-11.580000	21.302365	0.000447	20.942583
53.023852	-3.005200	3.869600	-11.628000	21.320377	0.000446	20.957756
54.019339	-3.024200	3.870300	-11.703000	21.325814	0.000446	20.945653
55.017221	-3.006900	3.870000	-11.636000	21.346992	0.000444	20.925592
56.015710	-2.997900	3.869800	-11.599000	21.329831	0.000446	20.920752
57.022326	-2.998500	3.870400	-11.604000	21.370961	0.000445	20.948622
58.022837	-3.000900	3.870300	-11.613000	21.362979	0.000442	20.926888
59.019796	-2.992500	3.869500	-11.579000	21.373182	0.000444	20.930932
60.018262	-3.002300	3.869300	-11.616000	21.364075	0.000446	20.929407
61.021564	-3.005400	3.868300	-11.625000	21.394381	0.000445	20.930331
62.016318	-2.996700	3.869700	-11.595000	21.399947	0.000444	20.932106
63.022194	-2.988900	3.869000	-11.562000	21.398318	0.000442	20.930951
64.023685	-2.990300	3.869000	-11.569000	21.416577	0.000445	20.939262
65.018398	-3.017200	3.866600	-11.665000	21.427353	0.000445	20.923492
66.016591	-2.997500	3.867900	-11.593000	21.454789	0.000446	20.932925
67.018112	-2.981200	3.868700	-11.533000	21.453566	0.000446	20.942131
68.019928	-2.982400	3.867900	-11.535000	21.456208	0.000444	20.924388
69.020216	-2.984700	3.868200	-11.545000	21.451144	0.000443	20.921218
70.019680	-3.007100	3.867200	-11.628000	21.444085	0.000445	20.905622
71.020443	-2.977200	3.867500	-11.513000	21.479651	0.000447	20.928404
72.020692	-2.965900	3.868100	-11.471000	21.482919	0.000444	20.922191
73.021265	-2.989900	3.867800	-11.564000	21.467229	0.000443	20.931621
74.024171	-3.014400	3.865700	-11.652000	21.504317	0.000442	20.906620
75.022676	-2.999100	3.867200	-11.597000	21.489302	0.000445	20.918622
76.021963	-3.009100	3.866700	-11.635000	21.513993	0.000445	20.906345
77.024022	-2.991100	3.865300	-11.561000	21.524616	0.000443	20.926456
78.023499	-2.980200	3.867200	-11.524000	21.535093	0.000444	20.903277
79.026467	-2.996300	3.866000	-11.583000	21.545196	0.000442	20.909592
80.024187	-2.997700	3.866100	-11.588000	21.560631	0.000444	20.903701
81.027890	-3.002900	3.865200	-11.606000	21.567417	0.000445	20.925187
82.023723	-2.973800	3.867200	-11.498000	21.586844	0.000444	20.919972
83.025288	-2.989200	3.865300	-11.553000	21.583480	0.000447	20.909021
84.028509	-3.013800	3.865200	-11.648000	21.588367	0.000444	20.923393
85.026749	-3.012600	3.864400	-11.640000	21.597819	0.000444	20.902982
86.032112	-3.000200	3.864800	-11.594000	21.597998	0.000444	20.902212
87.027163	-3.006900	3.864900	-11.621000	21.602560	0.000446	20.902036
88.029865	-2.992300	3.864900	-11.564000	21.624331	0.000447	20.909123
89.027421	-3.008900	3.863600	-11.624000	21.599317	0.000446	20.899266
90.028323	-2.991900	3.864700	-11.563000	21.628245	0.000444	20.892179
91.028044	-2.974700	3.863300	-11.490000	21.649566	0.000446	20.889334
92.027194	-2.994300	3.863500	-11.568000	21.626377	0.000444	20.894577
93.028208	-3.000000	3.862700	-11.587000	21.653037	0.000444	20.896600
94.027903	-3.003200	3.863900	-11.603000	21.664508	0.000447	20.889114
95.032830	-3.013400	3.862600	-11.638000	21.673884	0.000445	20.891859
96.030246	-3.007500	3.862200	-11.614000	21.699769	0.000445	20.884574
97.029952	-3.038100	3.861500	-11.731000	21.689547	0.000449	20.898050
98.030246	-3.025100	3.861900	-11.681000	21.708322	0.000448	20.895503
99.034183	-3.000000	3.862300	-11.586000	21.717550	0.000448	20.871075
100.028901	-3.015300	3.862700	-11.647000	21.704909	0.000447	20.893510
101.034649	-2.999400	3.862300	-11.584000	21.722587	0.000449	20.884651
102.031606	-2.988500	3.862200	-11.541000	21.712365	0.000446	20.897653
103.032922	-2.990200	3.861500	-11.546000	21.736280	0.000450	20.872751
104.031699	-2.987400	3.861800	-11.536000	21.744532	0.000448	20.895707
105.033836	-3.012700	3.860300	-11.629000	21.748347	0.000448	20.856854
106.035805	-3.020600	3.860800	-11.660000	21.740519	0.000447	20.875097
107.032911	-3.012000	3.861200	-11.629000	21.756429	0.000448	20.879639
108.032294	-3.003500	3.860400	-11.594000	21.792282	0.000448	20.895608
109.033461	-3.022300	3.860200	-11.666000	21.782934	0.000449	20.915173
110.032768	-2.972600	3.860800	-11.475000	21.797546	0.000451	20.888548
111.035199	-3.021700	3.860600	-11.665000	21.791910	0.000451	20.896658
112.032530	-2.996700	3.860400	-11.568000	21.852198	0.000448	20.888722
113.032956	-3.002600	3.860300	-11.590000	21.823924	0.000449	20.880337
114.033190	-2.993300	3.858900	-11.550000	21.836640	0.000452	20.891167
115.035794	-3.013400	3.859500	-11.629000	21.841653	0.000451	20.882909
116.036445	-3.014700	3.860900	-11.639000	21.833569	0.000451	20.873396
117.035722	-3.003300	3.858900	-11.588000	21.849656	0.000451	20.879540
118.035330	-3.010200	3.859400	-11.616000	21.858282	0.000453	20.888648
119.037150	-2.999000	3.859700	-11.574000	21.825595	0.000450	20.865890
120.038865	-3.017200	3.859400	-11.643000	21.875510	0.000450	20.884554
121.033911	-3.015300	3.857800	-11.631000	21.883758	0.000451	20.882854
122.036679	-3.020500	3.857500	-11.650000	21.900192	0.000451	20.871328
123.033910	-3.000000	3.859000	-11.576000	21.899743	0.000453	20.847173
124.035839	-2.999600	3.857500	-11.570000	21.916146	0.000452	20.867858
125.036362	-2.979600	3.859000	-11.497000	21.930233	0.000454	20.881009
126.040222	-2.971900	3.857900	-11.464000	21.931803	0.000454	20.863616
127.036154	-2.980400	3.857100	-11.495000	21.950651	0.000453	20.846448
128.036282	-2.982500	3.858100	-11.506000	21.975654	0.000455	20.871000
129.034098	-2.971000	3.858400	-11.462000	21.960471	0.000451	20.885199
130.035690	-2.979600	3.856900	-11.491000	21.990414	0.000455	20.866336
131.036710	-2.966800	3.858200	-11.445000	21.983106	0.000453	20.900269
132.037307	-2.993500	3.856200	-11.542000	21.987545	0.000455	20.875791
133.039853	-3.009500	3.857800	-11.609000	21.986223	0.000454	20.885847
134.036866	-3.011700	3.857100	-11.615000	21.983555	0.000452	20.874168
135.038054	-3.022500	3.856000	-11.653000	21.976125	0.000455	20.855826
136.038650	-3.014600	3.857200	-11.626000	22.019352	0.000451	20.881553
137.038567	-2.991900	3.857500	-11.541000	22.026481	0.000455	20.892482
138.041286	-2.991300	3.855600	-11.532000	22.030218	0.000456	20.864931
139.041728	-2.998000	3.855400	-11.557000	22.017928	0.000456	20.856895
140.038750	-2.989600	3.854400	-11.522000	22.038394	0.000457	20.871693
141.041914	-2.996000	3.856100	-11.551000	22.032983	0.000455	20.880026
142.046824	-3.014300	3.855700	-11.621000	22.022488	0.000455	20.887063
143.042764	-2.993300	3.855600	-11.540000	22.056114	0.000454	20.846285
144.046132	-2.986600	3.854300	-11.511000	22.056340	0.000457	20.863580
145.042442	-2.986700	3.854400	-11.510000	22.062819	0.000456	20.862954
146.043829	-2.979000	3.855000	-11.483000	22.075657	0.000456	20.873909
147.043501	-2.990800	3.854900	-11.529000	22.078424	0.000458	20.879050
148.046446	-2.995000	3.854100	-11.542000	22.079644	0.000458	20.866996
149.050321	-2.992200	3.854200	-11.532000	22.082112	0.000458	20.872310
150.045601	-3.001300	3.853900	-11.565000	22.092008	0.000459	20.872261
151.045368	-3.000100	3.854000	-11.561000	22.102753	0.000460	20.862155
152.046667	-3.005800	3.854200	-11.584000	22.139193	0.000461	20.870188
153.047025	-2.989500	3.854600	-11.522000	22.127055	0.000458	20.855192
154.048944	-2.997600	3.852800	-11.548000	22.154227	0.000460	20.860584
155.054862	-3.000700	3.852500	-11.559000	22.171673	0.000460	20.862403
156.050807	-2.990300	3.854100	-11.523000	22.165216	0.000460	20.854991
157.054004	-2.997400	3.853300	-11.549000	22.180819	0.000462	20.869664
158.054378	-3.000600	3.851700	-11.557000	22.174087	0.000460	20.864347
159.055324	-3.006900	3.852300	-11.582000	22.184980	0.000461	20.855812
160.055789	-3.009000	3.851500	-11.588000	22.176901	0.000461	20.848673
161.052747	-3.012000	3.852300	-11.601000	22.147517	0.000462	20.841539
162.053723	-3.003800	3.850900	-11.566000	22.171172	0.000462	20.852419
163.054819	-2.985000	3.852000	-11.497000	22.213518	0.000465	20.866841
164.053628	-3.007600	3.851900	-11.585000	22.206015	0.000461	20.869761
165.058896	-3.009200	3.851600	-11.589000	22.205239	0.000462	20.864716
166.055122	-2.993500	3.852100	-11.530000	22.235027	0.000464	20.846178
167.056715	-3.010800	3.851700	-11.596000	22.237417	0.000463	20.866114
168.056447	-2.992400	3.851900	-11.526000	22.214485	0.000461	20.849792
169.059141	-3.006600	3.850000	-11.574000	22.249528	0.000463	20.848370
170.056668	-3.029900	3.849900	-11.663000	22.232530	0.000465	20.852213
171.056203	-2.991400	3.849700	-11.515000	22.284744	0.000463	20.854233
172.056523	-2.993200	3.850600	-11.524000	22.251147	0.000466	20.827706
173.059276	-2.984900	3.851200	-11.494000	22.292795	0.000465	20.860871
174.058847	-3.000600	3.849600	-11.550000	22.307251	0.000466	20.852113
175.058862	-3.002400	3.849800	-11.557000	22.332144	0.000465	20.860918
176.065031	-3.015100	3.848500	-11.603000	22.306274	0.000465	20.830273
177.060112	-3.021900	3.848800	-11.630000	22.311684	0.000467	20.851810
178.058850	-3.022900	3.848900	-11.634000	22.325289	0.000465	20.845046
179.058521	-2.998300	3.848500	-11.538000	22.347297	0.000466	20.856177
180.058707	-3.002600	3.849800	-11.558000	22.356541	0.000467	20.831770
181.062221	-3.017000	3.848200	-11.609000	22.348492	0.000467	20.864485
182.063060	-2.999300	3.847500	-11.539000	22.362873	0.000468	20.857075
183.061645	-2.990800	3.847600	-11.506000	22.376850	0.000468	20.847838
184.066309	-2.998300	3.846800	-11.533000	22.396263	0.000467	20.864907
185.063939	-3.023600	3.846400	-11.629000	22.395391	0.000469	20.835111
186.062238	-3.006200	3.846500	-11.561000	22.373681	0.000470	20.851778
187.065364	-2.992300	3.846900	-11.510000	22.374306	0.000468	20.829645
188.063144	-2.980400	3.848600	-11.470000	22.389037	0.000471	20.852930
189.061948	-2.980400	3.847700	-11.466000	22.395765	0.000470	20.850184
190.062544	-2.999500	3.848000	-11.541000	22.422278	0.000469	20.851130
191.062823	-3.000600	3.847200	-11.543000	22.446700	0.000470	20.868474
192.065713	-3.010200	3.846900	-11.579000	22.433192	0.000472	20.857318
193.063316	-2.992500	3.845600	-11.507000	22.429655	0.000471	20.834336
194.063077	-2.982600	3.846800	-11.473000	22.436884	0.000472	20.833989
195.062784	-2.998900	3.845400	-11.531000	22.429955	0.000470	20.847913
196.064643	-3.017200	3.843900	-11.597000	22.478549	0.000472	20.858170
197.065001	-3.014400	3.844400	-11.587000	22.470250	0.000473	20.835635
198.068499	-2.980500	3.845400	-11.460000	22.457595	0.000472	20.842402
199.067068	-2.995900	3.846500	-11.522000	22.451886	0.000473	20.847590
200.066616	-3.000200	3.845800	-11.538000	22.485626	0.000472	20.837283
201.069489	-2.996400	3.845300	-11.521000	22.488767	0.000472	20.825730
202.068197	-2.994600	3.845100	-11.513000	22.518519	0.000472	20.838457
203.070628	-2.998300	3.844500	-11.526000	22.523554	0.000472	20.831646
204.068829	-2.993000	3.845100	-11.507000	22.506108	0.000473	20.833614
205.068992	-3.004300	3.844300	-11.549000	22.499758	0.000475	20.838634
206.070254	-3.026100	3.842800	-11.628000	22.509527	0.000475	20.835141
207.074821	-2.972600	3.843500	-11.424000	22.535665	0.000475	20.825283
208.076219	-2.974300	3.844900	-11.435000	22.539480	0.000477	20.843328
209.075784	-3.002600	3.843600	-11.540000	22.558665	0.000477	20.845947
210.071557	-2.994300	3.843900	-11.509000	22.567115	0.000474	20.837341
211.074839	-2.997800	3.843300	-11.520000	22.563476	0.000476	20.818524
212.073350	-2.993800	3.843400	-11.505000	22.559289	0.000476	20.843728
213.071609	-3.006100	3.842500	-11.550000	22.542023	0.000478	20.816479
214.076722	-2.991300	3.842700	-11.493000	22.544588	0.000480	20.809091
215.070394	-2.996500	3.842200	-11.512000	22.558447	0.000475	20.816806
216.070882	-3.001900	3.840800	-11.529000	22.595646	0.000478	20.828933
217.073198	-3.013000	3.841100	-11.573000	22.602076	0.000478	20.827786
218.073471	-2.998700	3.841200	-11.516000	22.617921	0.000477	20.820423
219.073632	-3.006700	3.839500	-11.544000	22.612240	0.000476	20.835122
220.073061	-3.006100	3.841100	-11.545000	22.564624	0.000478	20.819673
221.074317	-3.025600	3.841100	-11.620000	22.613459	0.000479	20.826386
222.073221	-2.997900	3.840600	-11.513000	22.590540	0.000478	20.802483
223.075307	-3.019000	3.839900	-11.592000	22.617147	0.000478	20.819174
224.071911	-3.012600	3.840500	-11.569000	22.621807	0.000480	20.813884
225.075978	-2.993900	3.840400	-11.497000	22.627763	0.000480	20.821272
226.073078	-3.015500	3.839100	-11.576000	22.620761	0.000479	20.812837
227.074387	-2.997400	3.839300	-11.507000	22.670739	0.000480	20.813584
228.077929	-3.031300	3.839000	-11.636000	22.681305	0.000480	20.816580
229.075027	-3.005300	3.839300	-11.537000	22.674276	0.000481	20.834195
230.078900	-2.998300	3.839100	-11.510000	22.682103	0.000480	20.821647
231.077566	-2.998300	3.839200	-11.510000	22.686562	0.000481	20.818052
232.076306	-2.998500	3.837200	-11.504000	22.708683	0.000482	20.812710
233.079105	-2.990300	3.839100	-11.480000	22.723035	0.000481	20.826612
234.079635	-3.013500	3.836600	-11.560000	22.699989	0.000480	20.813011
235.078874	-3.009900	3.837100	-11.549000	22.704924	0.000482	20.798039
236.082280	-3.013200	3.837500	-11.562000	22.693087	0.000482	20.807994
237.079075	-2.984800	3.836600	-11.450000	22.701610	0.000484	20.795668
238.084692	-3.004500	3.836600	-11.526000	22.709908	0.000483	20.815359
239.082703	-2.986400	3.837000	-11.458000	22.718178	0.000484	20.794720
240.079304	-2.968700	3.836900	-11.389000	22.731407	0.000481	20.791850
241.081352	-3.013700	3.835000	-11.557000	22.730634	0.000484	20.815731
242.079968	-3.004000	3.836300	-11.523000	22.730510	0.000484	20.829357
243.080370	-2.982100	3.837600	-11.444000	22.746155	0.000483	20.806623
244.080332	-2.989900	3.835300	-11.467000	22.750291	0.000484	20.791801
245.077518	-3.017900	3.835000	-11.573000	22.765513	0.000484	20.795194
246.083286	-2.980900	3.835600	-11.431000	22.781133	0.000483	20.788082
247.083142	-3.009700	3.835400	-11.542000	22.828963	0.000486	20.797115
248.081124	-2.980000	3.835900	-11.429000	22.831855	0.000486	20.795745
249.082924	-3.010500	3.835400	-11.546000	22.841643	0.000486	20.812663
250.085944	-3.006900	3.833900	-11.527000	22.857389	0.000486	20.795721
251.081401	-2.998700	3.834500	-11.498000	22.863888	0.000488	20.817405
252.085400	-2.997100	3.833800	-11.489000	22.827543	0.000486	20.796641
253.082739	-2.983600	3.836100	-11.445000	22.820119	0.000488	20.806273
254.081698	-3.006700	3.833900	-11.526000	22.835988	0.000487	20.798464
255.083128	-2.978700	3.833200	-11.417000	22.822463	0.000488	20.770689
256.082723	-2.988600	3.834000	-11.458000	22.839279	0.000489	20.786113
257.086531	-3.005800	3.833200	-11.521000	22.873156	0.000489	20.775481
258.083852	-3.016700	3.833700	-11.564000	22.871414	0.000489	20.791279
259.084226	-3.014300	3.832100	-11.551000	22.855421	0.000491	20.811767
260.084919	-3.003700	3.832300	-11.510000	22.838583	0.000488	20.774036
261.094034	-3.011600	3.833100	-11.543000	22.854824	0.000489	20.791729
262.086799	-3.001900	3.833500	-11.507000	22.901333	0.000490	20.805606
263.087199	-2.990500	3.833300	-11.463000	22.908806	0.000489	20.805032
264.085649	-3.036000	3.832900	-11.636000	22.923252	0.000491	20.796272
265.085240	-2.996700	3.830900	-11.479000	22.953568	0.000491	20.813369
266.089231	-2.993800	3.830700	-11.468000	22.947067	0.000491	20.793578
267.085958	-2.967400	3.832200	-11.370000	22.958799	0.000494	20.787315
268.088624	-3.000600	3.830500	-11.493000	22.977380	0.000493	20.795500
269.085672	-2.978300	3.831000	-11.408000	22.983856	0.000491	20.771643
270.085307	-2.982500	3.830600	-11.423000	22.943556	0.000493	20.783897
271.086578	-2.993900	3.829200	-11.463000	22.953417	0.000493	20.791880
272.086290	-3.000800	3.830800	-11.494000	22.929779	0.000493	20.780051
