LabVIEW Measurement	
Writer_Version	2
Reader_Version	2
Separator	Tab
Decimal_Separator	.
Multi_Headings	No
X_Columns	One
Time_Pref	Absolute
Operator	admin
Description	Clolumns are: time, Current, Voltage, Power, Battery Temp, and Chamber Temp
Date	2024/08/16
Time	13:07:17.8513970375061035156
***End_of_Header***	
	
Channels	6						
Samples	1	1	1	1	1	1	
Date	2024/09/05	2024/09/05	2024/09/05	2024/09/05	2024/09/05	2024/09/05	
Time	22:58:13.7600703239440917969	22:58:13.7661471366882324219	22:58:13.7710213661193847656	22:58:13.7442064285278320313	22:58:13.7442064285278320313	22:58:13.7442064285278320313	
X_Dimension	Time	Time	Time	Time	Time	Time	
X0	0.0000000000000000E+0	0.0000000000000000E+0	0.0000000000000000E+0	0.0000000000000000E+0	0.0000000000000000E+0	0.0000000000000000E+0	
Delta_X	1.000000	1.000000	1.000000	1.000000	1.000000	1.000000	
***End_of_Header***							
X_Value	Untitled	Untitled 1	Untitled 2	Untitled 3	Untitled 4	Untitled 5	Comment
0.000000	0.021943	4.086100	0.089844	20.831415	0.000458	20.897319
1.000726	-3.002000	3.921500	-11.772000	20.790987	0.000459	20.881073
2.002288	-3.001800	3.915200	-11.752000	20.796202	0.000458	20.897193
3.005211	-2.994800	3.911600	-11.713000	20.802764	0.000458	20.885737
4.000801	-3.000000	3.908500	-11.724000	20.819634	0.000455	20.885538
5.001015	-2.994900	3.904700	-11.693000	20.825900	0.000456	20.866201
6.001059	-2.979500	3.902900	-11.628000	20.829119	0.000455	20.882696
7.004369	-3.005600	3.900800	-11.723000	20.826922	0.000452	20.888085
8.005504	-2.993500	3.899000	-11.671000	20.825148	0.000456	20.902905
9.002867	-3.011900	3.896800	-11.735000	20.842292	0.000453	20.886385
10.002806	-2.991200	3.896300	-11.654000	20.860609	0.000453	20.901857
11.006657	-2.987800	3.894100	-11.633000	20.869990	0.000454	20.908867
12.003701	-3.021000	3.892000	-11.757000	20.875081	0.000453	20.877926
13.005469	-2.998900	3.891700	-11.669000	20.887683	0.000453	20.889106
14.004291	-2.993800	3.891200	-11.648000	20.883714	0.000452	20.893671
15.003891	-3.001800	3.888700	-11.672000	20.890650	0.000449	20.889228
16.004027	-3.003800	3.888300	-11.678000	20.899660	0.000451	20.884963
17.009953	-2.986300	3.888100	-11.610000	20.911586	0.000451	20.898785
18.003315	-3.012900	3.885700	-11.706000	20.911635	0.000448	20.907843
19.006243	-3.006300	3.885700	-11.680000	20.933320	0.000452	20.894443
20.004664	-2.993800	3.884500	-11.628000	20.939982	0.000449	20.890675
21.003551	-2.995800	3.883800	-11.634000	20.932970	0.000449	20.915428
22.004649	-2.989200	3.883900	-11.608000	20.949489	0.000449	20.902553
23.005312	-3.004500	3.882100	-11.663000	20.967753	0.000448	20.903749
24.009938	-3.004100	3.883000	-11.664000	20.975713	0.000448	20.907917
25.006410	-3.012100	3.880400	-11.686000	20.982072	0.000448	20.909536
26.006982	-2.997400	3.880800	-11.631000	21.006227	0.000447	20.903824
27.005904	-2.984200	3.880200	-11.579000	20.990732	0.000448	20.912981
28.006918	-2.998000	3.878300	-11.626000	21.018926	0.000447	20.895189
29.006734	-2.992500	3.879200	-11.608000	20.994473	0.000447	20.909611
30.012659	-3.008900	3.878000	-11.667000	21.015905	0.000445	20.907339
31.008884	-2.995600	3.878500	-11.617000	21.032075	0.000445	20.897909
32.008384	-2.996100	3.877900	-11.618000	21.033195	0.000445	20.890021
33.010188	-3.020200	3.875400	-11.703000	21.059243	0.000447	20.905642
34.008138	-3.012900	3.875800	-11.677000	21.035290	0.000444	20.894487
35.015327	-3.009800	3.875400	-11.663000	21.071194	0.000446	20.906215
36.010020	-2.983000	3.877000	-11.564000	21.065404	0.000445	20.893313
37.009964	-2.986600	3.876700	-11.577000	21.089505	0.000445	20.884704
38.011621	-2.998600	3.876300	-11.623000	21.086137	0.000446	20.891766
39.012773	-3.006800	3.874300	-11.648000	21.089106	0.000442	20.894261
40.013693	-3.011400	3.874400	-11.666000	21.098011	0.000442	20.890841
41.012424	-3.000600	3.873500	-11.623000	21.098684	0.000444	20.904789
42.011242	-3.009100	3.873300	-11.654000	21.114376	0.000444	20.917639
43.011313	-2.991800	3.873400	-11.588000	21.117667	0.000446	20.896752
44.011256	-2.989300	3.873400	-11.578000	21.115794	0.000443	20.904835
45.012379	-3.001000	3.873900	-11.624000	21.141741	0.000441	20.887168
46.015123	-3.010700	3.871700	-11.655000	21.161424	0.000442	20.891210
47.013631	-3.001100	3.872600	-11.621000	21.171750	0.000444	20.869299
48.013870	-2.994600	3.871500	-11.593000	21.169329	0.000442	20.891056
49.014104	-3.013000	3.871200	-11.663000	21.175716	0.000441	20.893179
50.013051	-3.003000	3.871400	-11.625000	21.174915	0.000444	20.903756
51.016305	-3.010500	3.870000	-11.650000	21.196967	0.000442	20.887885
52.013256	-3.005700	3.870600	-11.633000	21.208441	0.000441	20.896990
53.012904	-2.986300	3.871500	-11.561000	21.225578	0.000441	20.898487
54.014047	-3.023600	3.869400	-11.699000	21.228621	0.000442	20.881618
55.013223	-2.999400	3.869700	-11.605000	21.227249	0.000440	20.885460
56.017058	-3.009200	3.869800	-11.645000	21.237002	0.000443	20.900905
57.021980	-3.002200	3.868600	-11.614000	21.252390	0.000441	20.881688
58.014113	-3.007700	3.869000	-11.636000	21.235054	0.000444	20.901802
59.014925	-2.994300	3.868500	-11.582000	21.267632	0.000443	20.885082
60.016943	-3.026100	3.867600	-11.703000	21.276436	0.000443	20.877769
61.020183	-2.995500	3.869300	-11.590000	21.250467	0.000442	20.875024
62.019728	-3.001900	3.868700	-11.612000	21.285888	0.000442	20.870156
63.017951	-2.980500	3.867900	-11.527000	21.304971	0.000443	20.875022
64.016917	-2.981100	3.867900	-11.529000	21.325598	0.000443	20.869581
65.021113	-2.992800	3.868700	-11.577000	21.337147	0.000443	20.887771
66.020164	-3.003100	3.867900	-11.614000	21.329237	0.000444	20.881755
67.021729	-3.020600	3.867300	-11.680000	21.328564	0.000441	20.895306
68.018023	-3.008300	3.866700	-11.632000	21.365206	0.000444	20.869852
69.018981	-2.988900	3.866900	-11.556000	21.363931	0.000444	20.865258
70.018855	-2.990400	3.867200	-11.563000	21.355301	0.000443	20.887442
71.019639	-2.987700	3.865500	-11.548000	21.393488	0.000444	20.866380
72.018881	-3.002900	3.864700	-11.604000	21.384755	0.000442	20.889884
73.023376	-3.005500	3.865700	-11.616000	21.387174	0.000442	20.871917
74.020841	-3.002400	3.866500	-11.608000	21.395953	0.000443	20.876907
75.019251	-3.020400	3.864700	-11.672000	21.416652	0.000443	20.867271
76.026154	-2.999900	3.864700	-11.593000	21.412786	0.000441	20.864826
77.022186	-3.023700	3.865100	-11.686000	21.415778	0.000445	20.861656
78.025714	-2.999400	3.865000	-11.592000	21.443237	0.000444	20.867319
79.022922	-2.989500	3.865600	-11.555000	21.439744	0.000443	20.888004
80.023038	-3.010500	3.863600	-11.630000	21.452614	0.000442	20.875278
81.022160	-3.005100	3.864500	-11.612000	21.444732	0.000445	20.868814
82.023022	-2.988400	3.864200	-11.547000	21.459569	0.000443	20.867065
83.025227	-3.009800	3.865300	-11.633000	21.459069	0.000444	20.859926
84.025144	-3.008000	3.864600	-11.624000	21.492290	0.000444	20.877044
85.024626	-3.000100	3.864800	-11.594000	21.477099	0.000444	20.890767
86.024820	-2.990200	3.864600	-11.555000	21.509095	0.000445	20.867781
87.025731	-2.987600	3.863600	-11.542000	21.510191	0.000443	20.874568
88.026024	-3.004600	3.863300	-11.607000	21.509341	0.000445	20.876562
89.028549	-3.005200	3.862500	-11.607000	21.530114	0.000444	20.892132
90.028244	-3.012000	3.863400	-11.634000	21.545304	0.000445	20.856599
91.029715	-3.014300	3.863300	-11.644000	21.525399	0.000446	20.851854
92.030874	-3.008300	3.863100	-11.621000	21.542706	0.000446	20.867749
93.028382	-2.985300	3.863900	-11.534000	21.549538	0.000444	20.856095
94.030304	-2.988300	3.863800	-11.545000	21.565498	0.000444	20.858788
95.028859	-3.013700	3.861600	-11.638000	21.571708	0.000444	20.860735
96.029405	-2.980400	3.862100	-11.510000	21.586995	0.000445	20.839523
97.047883	-2.993900	3.863200	-11.565000	21.590159	0.000446	20.876826
98.032232	-3.002300	3.862800	-11.596000	21.595671	0.000445	20.871911
99.034065	-3.027800	3.860900	-11.689000	21.604297	0.000445	20.884336
100.033305	-3.021400	3.861800	-11.666000	21.608063	0.000446	20.873406
101.031977	-3.007000	3.861400	-11.610000	21.620183	0.000446	20.851397
102.034907	-2.986300	3.862200	-11.532000	21.632250	0.000446	20.853516
103.033582	-3.006600	3.859700	-11.604000	21.651426	0.000445	20.862748
104.034320	-2.996900	3.861000	-11.570000	21.635617	0.000443	20.860203
105.033513	-3.006700	3.860400	-11.606000	21.659930	0.000447	20.864145
106.033876	-3.015000	3.859800	-11.636000	21.659133	0.000447	20.858133
107.034718	-2.976500	3.860500	-11.489000	21.665590	0.000448	20.875974
108.033553	-2.990700	3.861100	-11.546000	21.674992	0.000444	20.854563
109.037180	-2.998300	3.860400	-11.574000	21.682248	0.000447	20.851868
110.036435	-3.020300	3.859600	-11.656000	21.690627	0.000446	20.839865
111.036347	-2.985100	3.860600	-11.524000	21.683793	0.000448	20.846777
112.036469	-2.994400	3.859000	-11.555000	21.737707	0.000447	20.854739
113.034446	-2.993400	3.861200	-11.557000	21.710952	0.000448	20.836499
114.037574	-3.006100	3.859000	-11.599000	21.737831	0.000445	20.874303
115.038413	-3.017000	3.859300	-11.643000	21.740127	0.000449	20.879445
116.035983	-3.014900	3.860400	-11.638000	21.732247	0.000449	20.860180
117.041549	-2.989200	3.858700	-11.533000	21.765685	0.000448	20.839594
118.037965	-2.975200	3.859900	-11.483000	21.747260	0.000449	20.857662
119.043029	-3.006800	3.858800	-11.601000	21.778902	0.000449	20.853296
120.038743	-2.989200	3.857600	-11.530000	21.772245	0.000448	20.849952
121.038478	-2.999300	3.858600	-11.572000	21.791919	0.000447	20.874383
122.041339	-2.987700	3.858400	-11.526000	21.785063	0.000449	20.848082
123.040691	-2.995900	3.858000	-11.557000	21.792792	0.000448	20.849180
124.043543	-2.995100	3.859000	-11.557000	21.804362	0.000448	20.838001
125.042410	-3.003600	3.857100	-11.584000	21.811220	0.000448	20.857666
126.042206	-3.010400	3.856900	-11.610000	21.831018	0.000452	20.854722
127.041576	-3.001800	3.857600	-11.578000	21.834683	0.000450	20.841322
128.042039	-2.984200	3.857800	-11.511000	21.819400	0.000451	20.833137
129.042899	-2.993600	3.856900	-11.545000	21.841665	0.000452	20.861111
130.047247	-3.020300	3.855900	-11.644000	21.829050	0.000453	20.829520
131.044806	-3.021600	3.856400	-11.652000	21.847103	0.000451	20.850908
132.042376	-3.001900	3.856500	-11.576000	21.876749	0.000454	20.851657
133.045939	-2.966700	3.857700	-11.444000	21.867076	0.000451	20.833915
134.047781	-2.994600	3.855500	-11.544000	21.898541	0.000454	20.845970
135.049075	-3.001500	3.854700	-11.569000	21.908664	0.000452	20.831921
136.044537	-2.985200	3.855400	-11.508000	21.901832	0.000455	20.827453
137.044520	-2.996900	3.856500	-11.557000	21.889890	0.000454	20.830199
138.045588	-2.993500	3.855000	-11.538000	21.915544	0.000452	20.856351
139.045694	-3.003800	3.856400	-11.582000	21.906447	0.000452	20.845348
140.048055	-3.018200	3.852600	-11.627000	21.905450	0.000454	20.842928
141.046685	-3.007500	3.853900	-11.590000	21.939878	0.000454	20.848941
142.047427	-3.003400	3.854100	-11.575000	21.951099	0.000454	20.850690
143.046068	-2.978700	3.854800	-11.482000	21.945217	0.000456	20.835793
144.046741	-2.978700	3.855000	-11.483000	21.940105	0.000455	20.825461
145.047234	-2.999100	3.853000	-11.554000	21.963963	0.000454	20.832747
146.049518	-2.982300	3.855100	-11.496000	21.977054	0.000454	20.836842
147.047695	-2.996500	3.853700	-11.547000	21.982089	0.000454	20.841882
148.046644	-3.013300	3.852400	-11.607000	21.993310	0.000454	20.827985
149.048862	-2.990500	3.854700	-11.527000	22.015547	0.000456	20.827960
150.046226	-2.999200	3.853100	-11.556000	22.023001	0.000456	20.830206
151.047975	-3.000900	3.853700	-11.564000	22.008491	0.000459	20.833225
152.046235	-2.999600	3.852100	-11.553000	22.009987	0.000457	20.809593
153.046667	-3.013600	3.852200	-11.608000	22.012332	0.000461	20.838018
154.048371	-3.019800	3.852500	-11.633000	22.014328	0.000458	20.828163
155.047464	-3.022400	3.852800	-11.644000	22.035468	0.000461	20.822299
156.047635	-3.001000	3.852600	-11.561000	22.052521	0.000459	20.820879
157.051246	-3.016500	3.852100	-11.619000	22.063213	0.000460	20.820202
158.046885	-3.025200	3.852400	-11.653000	22.047560	0.000460	20.809273
159.046779	-3.012800	3.851700	-11.604000	22.038238	0.000460	20.818907
160.051108	-3.004300	3.851100	-11.569000	22.067154	0.000459	20.832208
161.046719	-3.022100	3.850900	-11.637000	22.063341	0.000462	20.826968
162.051460	-3.012600	3.852200	-11.604000	22.091535	0.000460	20.786441
163.049477	-3.023000	3.850200	-11.638000	22.106839	0.000461	20.823574
164.048142	-3.015500	3.850700	-11.611000	22.123893	0.000462	20.817888
165.050314	-2.988900	3.851200	-11.510000	22.135332	0.000462	20.815116
166.051990	-3.001900	3.850300	-11.558000	22.090089	0.000459	20.811547
167.053144	-2.998500	3.850600	-11.545000	22.112901	0.000463	20.827272
168.052133	-3.015800	3.850600	-11.612000	22.145305	0.000463	20.822729
169.051783	-3.013300	3.850000	-11.601000	22.136507	0.000463	20.814870
170.054683	-2.986800	3.850000	-11.498000	22.164672	0.000462	20.805136
171.053339	-3.005400	3.850000	-11.570000	22.164672	0.000463	20.823628
172.053838	-3.010200	3.848600	-11.584000	22.171228	0.000463	20.824976
173.054919	-3.012200	3.848400	-11.591000	22.200067	0.000464	20.818762
174.058742	-2.994800	3.848000	-11.523000	22.191369	0.000464	20.814321
175.055064	-2.981500	3.849000	-11.475000	22.186157	0.000464	20.801991
176.056092	-3.010400	3.848300	-11.584000	22.222773	0.000465	20.812099
177.055134	-2.990800	3.847500	-11.506000	22.220329	0.000465	20.805385
178.059488	-2.996200	3.848200	-11.529000	22.222149	0.000466	20.792508
179.054526	-2.999000	3.847900	-11.539000	22.224591	0.000466	20.808704
180.055604	-3.007200	3.847300	-11.568000	22.224442	0.000466	20.782950
181.055314	-3.028500	3.846100	-11.648000	22.239921	0.000466	20.823578
182.055318	-3.010600	3.848100	-11.584000	22.226984	0.000468	20.793556
183.057148	-3.018700	3.846700	-11.611000	22.244553	0.000470	20.811621
184.056747	-2.999400	3.847500	-11.540000	22.264169	0.000468	20.815141
185.057676	-2.995300	3.847000	-11.522000	22.249514	0.000466	20.818485
186.056427	-3.020600	3.846100	-11.617000	22.279596	0.000471	20.811621
187.058626	-3.009900	3.845400	-11.573000	22.290787	0.000467	20.800542
188.055825	-3.000700	3.845200	-11.537000	22.292454	0.000469	20.790831
189.062078	-3.018900	3.846500	-11.611000	22.308531	0.000468	20.796972
190.056589	-3.005600	3.846400	-11.560000	22.321691	0.000470	20.817735
191.056397	-3.006600	3.844800	-11.559000	22.303047	0.000471	20.801913
192.057544	-3.005200	3.846000	-11.557000	22.322187	0.000471	20.815862
193.058243	-2.990800	3.846800	-11.504000	22.311023	0.000469	20.797097
194.061051	-2.968500	3.845600	-11.415000	22.353462	0.000471	20.799764
195.061002	-3.021100	3.844000	-11.612000	22.375841	0.000470	20.807948
196.059067	-2.997800	3.844700	-11.525000	22.328591	0.000471	20.812791
197.058416	-3.013600	3.844000	-11.583000	22.360366	0.000469	20.791978
198.058747	-2.981200	3.845200	-11.462000	22.367020	0.000470	20.796745
199.057276	-2.998200	3.843800	-11.523000	22.362633	0.000471	20.804679
200.061537	-2.996000	3.843600	-11.514000	22.336093	0.000472	20.782845
201.061783	-2.999800	3.844400	-11.531000	22.384290	0.000472	20.796494
202.060541	-2.988100	3.843300	-11.483000	22.373949	0.000473	20.803683
203.063911	-2.992100	3.843800	-11.500000	22.362235	0.000472	20.796695
204.066394	-2.983200	3.843100	-11.464000	22.393364	0.000472	20.789935
205.066230	-2.994300	3.844200	-11.510000	22.391319	0.000473	20.811120
206.063261	-3.015700	3.842400	-11.587000	22.414370	0.000472	20.806228
207.067075	-2.976100	3.843700	-11.439000	22.418135	0.000473	20.803834
208.063289	-3.001200	3.843400	-11.533000	22.409240	0.000474	20.796349
209.063606	-3.013100	3.841000	-11.573000	22.464487	0.000474	20.781975
210.064696	-2.995500	3.841700	-11.507000	22.453722	0.000472	20.766926
211.065364	-2.970400	3.842900	-11.414000	22.479338	0.000475	20.785942
212.065008	-3.000700	3.842000	-11.528000	22.466034	0.000474	20.792059
213.064268	-3.022700	3.839800	-11.606000	22.465560	0.000478	20.780205
214.071424	-2.978600	3.842800	-11.445000	22.473611	0.000474	20.805337
215.068998	-2.998900	3.840000	-11.515000	22.494418	0.000474	20.803415
216.070640	-3.027300	3.839900	-11.623000	22.503389	0.000478	20.770200
217.068117	-2.979700	3.841000	-11.443000	22.472689	0.000480	20.772645
218.086493	-3.019300	3.839000	-11.590000	22.519958	0.000478	20.787742
219.067985	-3.017200	3.839900	-11.585000	22.522103	0.000479	20.768553
220.068019	-2.996600	3.840300	-11.507000	22.506430	0.000478	20.790315
221.067818	-3.001400	3.838600	-11.520000	22.489289	0.000479	20.794485
222.067487	-3.003100	3.839500	-11.529000	22.482410	0.000480	20.776217
223.067563	-2.997800	3.839000	-11.508000	22.535010	0.000479	20.790963
224.068080	-2.996900	3.838800	-11.504000	22.550786	0.000481	20.769305
225.069298	-3.018100	3.838100	-11.583000	22.543360	0.000479	20.774196
226.068262	-3.014300	3.838500	-11.569000	22.537853	0.000482	20.771050
227.071445	-2.987400	3.837700	-11.463000	22.584798	0.000482	20.773972
228.069285	-2.994900	3.837800	-11.494000	22.578021	0.000483	20.770030
229.070949	-3.015700	3.837600	-11.572000	22.598651	0.000484	20.776941
230.070250	-2.996700	3.837600	-11.499000	22.598601	0.000483	20.784952
231.069209	-3.006200	3.836400	-11.531000	22.593468	0.000484	20.782182
232.074215	-3.003600	3.837900	-11.527000	22.602788	0.000483	20.791516
233.070380	-3.013800	3.836800	-11.562000	22.610040	0.000485	20.778865
234.071098	-3.010100	3.835800	-11.545000	22.604857	0.000483	20.778889
235.071983	-3.010900	3.834900	-11.546000	22.602515	0.000484	20.764689
236.072978	-3.005500	3.835800	-11.528000	22.619133	0.000483	20.778964
237.075155	-3.012500	3.836300	-11.555000	22.633337	0.000485	20.771854
238.075803	-2.998600	3.836400	-11.503000	22.661366	0.000485	20.762944
239.073902	-3.000300	3.834800	-11.504000	22.651950	0.000486	20.773901
240.083219	-3.003900	3.835700	-11.521000	22.684512	0.000486	20.776171
241.077806	-3.050300	3.833800	-11.693000	22.670160	0.000485	20.777916
242.075286	-3.001900	3.835400	-11.513000	22.654565	0.000487	20.751864
243.076548	-3.014200	3.833600	-11.554000	22.653168	0.000484	20.767534
244.073845	-2.989800	3.835800	-11.468000	22.646644	0.000486	20.784233
245.074817	-2.987200	3.835500	-11.457000	22.679506	0.000490	20.773052
246.079043	-3.015900	3.834300	-11.563000	22.697992	0.000489	20.789673
247.077405	-2.987200	3.835200	-11.456000	22.691615	0.000488	20.794191
248.081575	-3.030300	3.833800	-11.616000	22.699712	0.000490	20.776222
249.077964	-3.012300	3.831800	-11.542000	22.715107	0.000490	20.766514
250.077600	-3.005800	3.834600	-11.525000	22.715957	0.000491	20.808142
251.077967	-2.964800	3.834700	-11.368000	22.713538	0.000490	20.776322
252.078481	-3.005600	3.833300	-11.520000	22.719843	0.000490	20.775525
253.079469	-3.006700	3.832400	-11.522000	22.732873	0.000489	20.760128
254.081638	-3.006600	3.833800	-11.526000	22.739323	0.000491	20.788399
255.077867	-3.012000	3.832400	-11.543000	22.719940	0.000491	20.789847
256.079097	-3.013100	3.831800	-11.544000	22.735114	0.000494	20.778494
257.083411	-3.007100	3.832600	-11.525000	22.733169	0.000492	20.764217
258.079052	-3.023100	3.831800	-11.583000	22.759154	0.000493	20.776496
259.081931	-2.977400	3.831900	-11.408000	22.760226	0.000492	20.753388
260.081138	-3.021600	3.830700	-11.574000	22.753523	0.000492	20.774649
261.078358	-2.982600	3.832500	-11.430000	22.761543	0.000492	20.758975
262.078654	-2.979400	3.830900	-11.413000	22.793356	0.000495	20.781360
263.078170	-2.978500	3.831800	-11.412000	22.813586	0.000494	20.767961
264.081493	-2.986700	3.830800	-11.441000	22.839244	0.000491	20.768060
265.083770	-3.023300	3.830600	-11.580000	22.860468	0.000494	20.773676
266.078466	-3.025500	3.830700	-11.589000	22.876459	0.000493	20.774523
267.079120	-3.001100	3.830000	-11.494000	22.883333	0.000494	20.783780
268.082672	-3.026400	3.828700	-11.586000	22.861762	0.000494	20.769282
269.080354	-3.008700	3.830300	-11.524000	22.865299	0.000494	20.789895
270.084077	-3.028800	3.829000	-11.596000	22.827211	0.000494	20.775920
271.080954	-3.003300	3.829600	-11.500000	22.837277	0.000493	20.767986
272.082756	-2.988600	3.829600	-11.444000	22.872921	0.000495	20.779513
