LabVIEW Measurement	
Writer_Version	2
Reader_Version	2
Separator	Tab
Decimal_Separator	.
Multi_Headings	No
X_Columns	One
Time_Pref	Absolute
Operator	admin
Description	Clolumns are: time, Current, Voltage, Power, Battery Temp, and Chamber Temp
Date	2024/08/16
Time	13:07:17.8513970375061035156
***End_of_Header***	
	
Channels	6						
Samples	1	1	1	1	1	1	
Date	2024/09/18	2024/09/18	2024/09/18	2024/09/18	2024/09/18	2024/09/18	
Time	08:44:25.1337690353393554687	08:44:25.1461462974548339844	08:44:25.1569161415100097656	08:44:25.1138639450073242187	08:44:25.1138639450073242187	08:44:25.1138639450073242187	
X_Dimension	Time	Time	Time	Time	Time	Time	
X0	0.0000000000000000E+0	0.0000000000000000E+0	0.0000000000000000E+0	0.0000000000000000E+0	0.0000000000000000E+0	0.0000000000000000E+0	
Delta_X	1.000000	1.000000	1.000000	1.000000	1.000000	1.000000	
***End_of_Header***							
X_Value	Untitled	Untitled 1	Untitled 2	Untitled 3	Untitled 4	Untitled 5	Comment
0.000000	0.029884	4.085700	0.122130	20.886341	0.000469	20.777289
0.998006	-2.990900	3.914800	-11.708000	20.883749	0.000465	20.779913
2.002918	-3.001500	3.908400	-11.730000	20.881568	0.000464	20.772515
2.995939	-2.992400	3.904300	-11.682000	20.863404	0.000466	20.771419
3.998041	-3.006400	3.900500	-11.725000	20.871235	0.000464	20.777355
5.000785	-3.014100	3.897300	-11.746000	20.868472	0.000464	20.759418
5.999757	-2.997000	3.895800	-11.675000	20.893715	0.000463	20.761430
6.999757	-2.994700	3.892700	-11.657000	20.901751	0.000462	20.766147
8.002765	-3.001600	3.890500	-11.676000	20.900459	0.000462	20.797098
9.000677	-2.975100	3.888900	-11.568000	20.909435	0.000462	20.771935
9.999407	-3.000400	3.887300	-11.662000	20.923633	0.000460	20.780446
11.000172	-3.018100	3.885800	-11.727000	20.910432	0.000456	20.793796
11.999106	-3.019000	3.884600	-11.726000	20.935984	0.000460	20.737795
12.998937	-3.004000	3.882100	-11.661000	20.937382	0.000459	20.756737
13.997401	-3.035900	3.881600	-11.783000	20.949350	0.000459	20.744050
14.999604	-3.007500	3.879300	-11.666000	20.937072	0.000459	20.780136
16.003402	-3.006000	3.878800	-11.659000	20.953241	0.000458	20.766908
17.004234	-3.006800	3.879500	-11.663000	20.983761	0.000457	20.750018
18.008952	-3.009100	3.877500	-11.667000	20.972654	0.000455	20.759771
19.001861	-3.003100	3.877500	-11.644000	20.990995	0.000457	20.771478
20.000233	-2.999500	3.877500	-11.629000	20.995409	0.000458	20.774470
20.998069	-2.990200	3.877200	-11.593000	20.992132	0.000456	20.774986
21.999364	-3.019400	3.874800	-11.699000	21.009329	0.000455	20.768478
23.003565	-2.997400	3.873900	-11.611000	21.021900	0.000453	20.758766
24.004381	-2.998600	3.873000	-11.613000	21.027344	0.000453	20.770849
25.003491	-2.954900	3.874300	-11.447000	21.034953	0.000455	20.770874
26.004479	-3.006000	3.872000	-11.638000	21.038966	0.000453	20.773465
27.008824	-2.981500	3.872800	-11.546000	21.037667	0.000453	20.768847
28.005254	-3.001900	3.872700	-11.625000	21.055207	0.000452	20.758889
29.004911	-3.009800	3.870900	-11.650000	21.065236	0.000452	20.768446
30.003439	-3.022100	3.869900	-11.695000	21.072445	0.000453	20.761906
31.005965	-2.998900	3.870400	-11.606000	21.075542	0.000450	20.785867
32.004765	-3.005300	3.868600	-11.625000	21.077733	0.000452	20.752971
33.007136	-3.005300	3.869500	-11.628000	21.088260	0.000450	20.761604
34.017616	-2.994300	3.869500	-11.586000	21.115933	0.000451	20.751826
35.001328	-2.989100	3.868000	-11.561000	21.124981	0.000450	20.746177
36.007590	-2.997600	3.867600	-11.593000	21.135230	0.000452	20.758800
37.008582	-2.995600	3.868100	-11.586000	21.146532	0.000448	20.756830
38.005346	-3.011200	3.867500	-11.645000	21.145943	0.000449	20.744860
39.002341	-3.000800	3.866300	-11.601000	21.152955	0.000450	20.767522
40.007651	-2.998400	3.866500	-11.592000	21.161561	0.000450	20.753845
41.006069	-3.004700	3.866800	-11.617000	21.158292	0.000449	20.741566
42.010238	-3.010800	3.865200	-11.635000	21.178013	0.000449	20.766984
43.006926	-2.996600	3.865300	-11.581000	21.188424	0.000450	20.770760
44.006567	-3.003400	3.864400	-11.605000	21.195640	0.000448	20.750003
45.005994	-2.993900	3.864200	-11.568000	21.212629	0.000449	20.748507
46.006039	-3.018900	3.863500	-11.661000	21.198206	0.000447	20.741664
47.006363	-2.972900	3.864900	-11.488000	21.226343	0.000450	20.764122
48.004269	-2.996300	3.863400	-11.574000	21.221448	0.000448	20.762545
49.007902	-3.021100	3.862700	-11.669000	21.236043	0.000449	20.739212
50.004887	-3.004100	3.863700	-11.606000	21.234727	0.000449	20.743585
51.008588	-2.973600	3.862700	-11.485000	21.250540	0.000450	20.754663
52.005208	-3.004800	3.863500	-11.608000	21.264742	0.000450	20.756543
53.006760	-3.010100	3.862400	-11.625000	21.278307	0.000447	20.746880
54.009646	-3.011800	3.862400	-11.632000	21.266205	0.000448	20.762275
55.006104	-3.014800	3.862000	-11.642000	21.303247	0.000447	20.737217
56.009868	-2.986200	3.862100	-11.532000	21.304743	0.000448	20.756258
57.009882	-2.994600	3.862000	-11.565000	21.318536	0.000448	20.734969
58.011472	-2.990200	3.862200	-11.547000	21.302675	0.000450	20.754189
59.009711	-2.996900	3.860800	-11.570000	21.331905	0.000447	20.760673
60.013186	-3.006500	3.861000	-11.608000	21.328963	0.000447	20.718373
61.015165	-3.013400	3.862500	-11.638000	21.360765	0.000446	20.757778
62.014317	-2.973200	3.861200	-11.479000	21.350715	0.000447	20.730652
63.014567	-3.012900	3.859600	-11.628000	21.356434	0.000448	20.731633
64.011999	-3.002900	3.860500	-11.592000	21.366583	0.000448	20.733726
65.017796	-2.999600	3.859200	-11.576000	21.400893	0.000449	20.750985
66.020354	-2.982400	3.860000	-11.511000	21.404889	0.000447	20.736016
67.018406	-2.995500	3.859600	-11.561000	21.396547	0.000448	20.725298
68.013911	-2.978800	3.859300	-11.496000	21.409350	0.000448	20.749489
69.015904	-2.989000	3.860500	-11.538000	21.429981	0.000446	20.749742
70.015744	-2.985700	3.860300	-11.525000	21.411850	0.000447	20.736817
71.016276	-2.996400	3.859300	-11.564000	21.412022	0.000447	20.729402
72.022180	-2.985100	3.859500	-11.520000	21.437335	0.000446	20.734340
73.016238	-3.003600	3.858900	-11.589000	21.443471	0.000446	20.736212
74.013290	-2.996900	3.858500	-11.562000	21.453552	0.000450	20.752464
75.018140	-2.992200	3.857900	-11.542000	21.463423	0.000449	20.736261
76.018128	-3.001400	3.858000	-11.578000	21.486478	0.000448	20.746529
77.020163	-2.996000	3.858100	-11.558000	21.486225	0.000448	20.753388
78.021563	-3.007900	3.857700	-11.602000	21.506896	0.000449	20.730922
79.016145	-3.014300	3.855800	-11.622000	21.492459	0.000449	20.725485
80.020618	-3.003700	3.856400	-11.583000	21.518669	0.000448	20.724684
81.029233	-3.019400	3.856500	-11.643000	21.529118	0.000449	20.734667
82.020392	-3.017200	3.855600	-11.632000	21.524257	0.000447	20.740708
83.021535	-2.996800	3.855800	-11.554000	21.524952	0.000447	20.722910
84.021132	-2.982200	3.856200	-11.499000	21.541390	0.000449	20.736040
85.022480	-2.988600	3.855900	-11.523000	21.551512	0.000451	20.733841
86.021747	-3.002800	3.856300	-11.579000	21.580890	0.000450	20.712503
87.022048	-2.982900	3.856400	-11.502000	21.566928	0.000450	20.717024
88.024603	-2.992800	3.855100	-11.536000	21.568619	0.000451	20.708759
89.020037	-2.986900	3.856200	-11.517000	21.610046	0.000448	20.735517
90.020332	-2.990100	3.855400	-11.527000	21.602915	0.000450	20.729802
91.020250	-2.993800	3.854600	-11.538000	21.610383	0.000452	20.722576
92.019641	-2.987200	3.855100	-11.515000	21.632006	0.000452	20.709601
93.020586	-3.017700	3.854000	-11.629000	21.618592	0.000452	20.712773
94.029413	-2.993000	3.854500	-11.535000	21.624482	0.000450	20.697329
95.023061	-3.013900	3.853200	-11.612000	21.649316	0.000449	20.703216
96.029186	-3.009500	3.854900	-11.601000	21.659561	0.000450	20.718210
97.026615	-3.017500	3.854100	-11.629000	21.662747	0.000451	20.736573
98.022530	-2.989100	3.855000	-11.522000	21.683120	0.000452	20.717132
99.025459	-3.003700	3.853600	-11.573000	21.678333	0.000451	20.743637
100.024165	-3.012100	3.853200	-11.605000	21.679453	0.000452	20.724841
101.023032	-2.998600	3.852100	-11.549000	21.696133	0.000452	20.714033
102.023520	-2.997600	3.853600	-11.551000	21.721766	0.000451	20.714557
103.023630	-3.004400	3.851200	-11.569000	21.717453	0.000454	20.718301
104.026407	-2.995500	3.853400	-11.542000	21.736404	0.000454	20.733949
105.033087	-3.017500	3.851000	-11.620000	21.724904	0.000453	20.696358
106.029693	-2.987400	3.853100	-11.510000	21.752186	0.000453	20.710387
107.028248	-2.991800	3.853100	-11.526000	21.747939	0.000453	20.711353
108.030232	-3.005100	3.852200	-11.576000	21.760608	0.000453	20.716920
109.034621	-2.993500	3.851700	-11.530000	21.754694	0.000454	20.720485
110.033009	-2.995300	3.852300	-11.538000	21.756189	0.000455	20.715343
111.031392	-3.004700	3.852200	-11.574000	21.771823	0.000454	20.715817
112.032188	-3.029400	3.850700	-11.664000	21.802388	0.000453	20.714640
113.029027	-3.018600	3.851200	-11.624000	21.802388	0.000456	20.712743
114.030996	-3.023400	3.850800	-11.641000	21.806146	0.000457	20.697537
115.041810	-2.987300	3.851700	-11.505000	21.805574	0.000456	20.716881
116.035105	-3.004200	3.850700	-11.567000	21.815042	0.000455	20.715451
117.033553	-2.984100	3.851600	-11.493000	21.844837	0.000453	20.699279
118.032612	-3.002500	3.849000	-11.556000	21.854606	0.000456	20.713799
119.031961	-2.968300	3.851600	-11.432000	21.856533	0.000454	20.688699
120.032750	-2.998200	3.850200	-11.543000	21.865772	0.000457	20.709328
121.036473	-2.987000	3.850300	-11.500000	21.860740	0.000458	20.712826
122.036350	-2.996100	3.851500	-11.537000	21.853357	0.000456	20.709229
123.033630	-3.006400	3.850300	-11.575000	21.886689	0.000456	20.699918
124.037606	-2.983500	3.848700	-11.482000	21.891990	0.000455	20.706173
125.039504	-2.993600	3.849800	-11.524000	21.875631	0.000457	20.709713
126.051607	-2.998900	3.848800	-11.542000	21.913559	0.000457	20.716858
127.041608	-3.015600	3.848400	-11.604000	21.909289	0.000458	20.709738
128.036932	-2.987000	3.849800	-11.499000	21.949373	0.000459	20.705291
129.039615	-3.007900	3.847300	-11.571000	21.948973	0.000457	20.702045
130.048803	-2.980800	3.849700	-11.474000	21.938878	0.000457	20.705691
131.041430	-3.025000	3.846800	-11.636000	21.961534	0.000457	20.706084
132.042294	-3.000700	3.847500	-11.545000	21.961853	0.000460	20.712094
133.043620	-2.982400	3.846400	-11.471000	21.980996	0.000459	20.697116
134.045111	-3.009900	3.846700	-11.577000	21.988297	0.000460	20.699210
135.044315	-3.007000	3.847900	-11.570000	21.998661	0.000459	20.709585
136.043221	-2.970800	3.847600	-11.429000	22.012144	0.000458	20.693210
137.044221	-2.999900	3.847900	-11.542000	22.005913	0.000460	20.701197
138.047998	-2.975300	3.846800	-11.444000	21.982672	0.000461	20.677455
139.043643	-2.999000	3.848200	-11.540000	22.013477	0.000460	20.707347
140.044926	-3.007000	3.846100	-11.564000	22.021473	0.000461	20.709187
141.045748	-2.998000	3.846000	-11.529000	22.028577	0.000460	20.705394
142.048620	-2.997100	3.847100	-11.529000	22.022771	0.000461	20.711435
143.051908	-2.980800	3.847300	-11.467000	22.081511	0.000462	20.720929
144.046405	-2.988000	3.846000	-11.491000	22.090339	0.000461	20.715066
145.047536	-3.012200	3.845100	-11.581000	22.067327	0.000460	20.705305
146.046399	-3.014700	3.844400	-11.589000	22.089833	0.000461	20.707922
147.044625	-3.007100	3.845900	-11.564000	22.073224	0.000463	20.713580
148.047606	-2.985500	3.845900	-11.481000	22.118797	0.000461	20.701831
149.044399	-3.019800	3.843900	-11.605000	22.115246	0.000464	20.687369
150.044473	-3.004600	3.845000	-11.551000	22.104240	0.000461	20.711914
151.047279	-3.013300	3.844600	-11.584000	22.109506	0.000465	20.706754
152.047728	-3.007300	3.844800	-11.561000	22.147861	0.000464	20.711489
153.049276	-2.993200	3.845100	-11.508000	22.151502	0.000465	20.704229
154.048515	-2.980100	3.843500	-11.453000	22.144619	0.000465	20.719150
155.042840	-2.993800	3.843900	-11.507000	22.160641	0.000464	20.720017
156.047141	-3.015600	3.841900	-11.584000	22.177935	0.000467	20.707934
157.050349	-2.990400	3.843400	-11.492000	22.185562	0.000464	20.715570
158.053119	-2.988300	3.843800	-11.486000	22.182720	0.000465	20.714622
159.053689	-3.024600	3.843300	-11.624000	22.191318	0.000464	20.685295
160.051069	-2.962800	3.843500	-11.386000	22.203175	0.000469	20.711393
161.050878	-2.969700	3.843600	-11.413000	22.214663	0.000469	20.720051
162.050341	-3.024900	3.842500	-11.621000	22.225302	0.000464	20.733550
163.053720	-2.992300	3.841500	-11.494000	22.210075	0.000466	20.706447
164.053012	-3.006200	3.843200	-11.552000	22.230855	0.000468	20.736264
165.052718	-2.986500	3.841300	-11.471000	22.235289	0.000466	20.712727
166.050549	-3.000700	3.843200	-11.531000	22.243855	0.000466	20.720830
167.049472	-2.984500	3.842200	-11.467000	22.265810	0.000470	20.723847
168.054264	-3.006400	3.841400	-11.548000	22.276473	0.000467	20.712238
169.059412	-3.015100	3.841500	-11.582000	22.274922	0.000470	20.713056
170.048666	-2.965200	3.842500	-11.393000	22.267500	0.000468	20.706573
171.053367	-3.011600	3.841200	-11.567000	22.274449	0.000469	20.718747
172.054453	-2.999100	3.840200	-11.516000	22.266946	0.000470	20.727356
173.053026	-2.992600	3.842000	-11.497000	22.282590	0.000472	20.697499
174.056125	-3.012100	3.840200	-11.566000	22.323346	0.000471	20.733569
175.059363	-3.003500	3.838500	-11.528000	22.323110	0.000470	20.701563
176.052053	-3.012400	3.838400	-11.562000	22.319045	0.000472	20.734478
177.054384	-3.010200	3.839000	-11.555000	22.349897	0.000472	20.723646
178.062448	-3.003000	3.840000	-11.531000	22.345684	0.000473	20.713737
179.067046	-2.975600	3.840100	-11.425000	22.387475	0.000471	20.702954
180.060301	-2.994800	3.838300	-11.494000	22.369075	0.000473	20.716297
181.057868	-3.022400	3.838200	-11.600000	22.361303	0.000473	20.729852
182.054046	-2.999500	3.839900	-11.517000	22.357269	0.000472	20.715855
183.057367	-3.009200	3.839000	-11.550000	22.380864	0.000472	20.729999
184.055337	-2.998900	3.837300	-11.507000	22.390856	0.000473	20.728152
185.058085	-2.980400	3.839400	-11.442000	22.402620	0.000473	20.732820
186.061682	-3.006300	3.838300	-11.538000	22.402441	0.000475	20.714622
187.058838	-3.025600	3.836700	-11.608000	22.380881	0.000474	20.730491
188.061575	-2.999100	3.838500	-11.511000	22.362667	0.000477	20.733115
189.063226	-3.017700	3.837100	-11.578000	22.368693	0.000474	20.714017
190.061065	-3.005500	3.836100	-11.528000	22.371330	0.000477	20.719978
191.060546	-3.005700	3.838100	-11.535000	22.398491	0.000475	20.732478
192.058200	-3.005400	3.837200	-11.532000	22.429650	0.000477	20.737603
193.059795	-2.996800	3.836800	-11.497000	22.421545	0.000475	20.724270
194.068532	-3.004900	3.836800	-11.528000	22.440059	0.000478	20.718629
195.061711	-3.010800	3.836000	-11.548000	22.445292	0.000477	20.718653
196.067411	-3.001600	3.834600	-11.509000	22.474591	0.000479	20.748944
197.064591	-2.997400	3.835900	-11.497000	22.469586	0.000479	20.738717
198.063749	-2.992300	3.835700	-11.476000	22.484116	0.000478	20.726715
199.061347	-2.988700	3.836800	-11.466000	22.509177	0.000476	20.727157
200.063944	-3.005000	3.834900	-11.523000	22.512050	0.000480	20.729560
201.062766	-2.996700	3.834500	-11.489000	22.529388	0.000478	20.727958
202.063996	-3.001400	3.835200	-11.510000	22.535469	0.000479	20.739264
203.063309	-2.996900	3.834500	-11.490000	22.549370	0.000479	20.727582
204.060956	-2.992000	3.834300	-11.471000	22.539607	0.000479	20.735348
205.064970	-3.007400	3.833600	-11.528000	22.573915	0.000478	20.727508
206.063851	-2.986100	3.833400	-11.446000	22.580135	0.000478	20.725204
207.065762	-3.006100	3.833300	-11.523000	22.574805	0.000477	20.728400
208.065739	-2.996500	3.834800	-11.489000	22.571621	0.000480	20.739911
209.064624	-2.992400	3.834400	-11.472000	22.566357	0.000481	20.732267
210.067278	-3.008600	3.832800	-11.530000	22.555150	0.000481	20.760872
211.065820	-3.010500	3.833000	-11.539000	22.546645	0.000482	20.755200
212.068341	-3.002900	3.833200	-11.511000	22.576601	0.000481	20.744424
213.067858	-3.024500	3.832800	-11.591000	22.596729	0.000482	20.733763
214.064872	-2.999900	3.831400	-11.492000	22.618629	0.000483	20.758796
215.088392	-3.021800	3.831100	-11.576000	22.624709	0.000484	20.732864
216.071899	-3.011000	3.831700	-11.537000	22.653260	0.000484	20.759091
217.064690	-2.969300	3.833300	-11.382000	22.659235	0.000485	20.728565
218.070867	-2.997700	3.833100	-11.489000	22.653733	0.000483	20.741399
219.070639	-3.001600	3.831600	-11.500000	22.657545	0.000482	20.752477
220.069284	-3.012900	3.831000	-11.542000	22.656377	0.000484	20.719538
221.073973	-2.996500	3.832100	-11.482000	22.665119	0.000484	20.757219
222.070468	-3.017900	3.829500	-11.555000	22.666490	0.000484	20.733935
223.070450	-3.008000	3.830300	-11.520000	22.687539	0.000484	20.724673
224.068998	-3.021600	3.830100	-11.571000	22.684569	0.000485	20.722172
225.071958	-3.029700	3.829400	-11.601000	22.700418	0.000486	20.737100
226.072870	-3.002200	3.829900	-11.497000	22.706589	0.000485	20.748972
227.074614	-3.015900	3.829200	-11.548000	22.706295	0.000489	20.731132
228.075838	-2.985000	3.830100	-11.432000	22.746905	0.000486	20.748104
229.075552	-2.995600	3.829000	-11.470000	22.741674	0.000487	20.739545
230.071295	-2.997300	3.829300	-11.477000	22.729040	0.000487	20.734476
231.068719	-3.011000	3.829000	-11.527000	22.735618	0.000488	20.742488
232.070846	-3.024500	3.828600	-11.578000	22.732729	0.000489	20.753345
233.073140	-2.992000	3.829900	-11.457000	22.743332	0.000487	20.754008
234.083493	-2.988500	3.828300	-11.439000	22.770190	0.000488	20.741557
235.073369	-3.013500	3.828700	-11.537000	22.777518	0.000489	20.750795
236.077096	-2.982800	3.828000	-11.416000	22.808007	0.000491	20.758104
237.078768	-3.007200	3.827500	-11.509000	22.821765	0.000490	20.769041
238.078677	-3.001000	3.827600	-11.486000	22.849749	0.000491	20.746815
239.078809	-2.992300	3.827000	-11.450000	22.837377	0.000490	20.751016
240.078525	-3.012400	3.827700	-11.529000	22.831241	0.000490	20.745817
241.081102	-2.990300	3.827800	-11.445000	22.828555	0.000490	20.744075
242.079097	-3.018800	3.826600	-11.551000	22.852736	0.000489	20.758342
243.083709	-3.011400	3.825300	-11.519000	22.868345	0.000491	20.749797
244.078347	-3.008900	3.827400	-11.515000	22.857297	0.000492	20.744893
245.079849	-3.008400	3.826100	-11.509000	22.877681	0.000493	20.740658
246.078752	-3.000600	3.825900	-11.479000	22.865147	0.000492	20.752758
247.080557	-3.014500	3.824600	-11.527000	22.871994	0.000493	20.755824
248.077356	-2.982700	3.826100	-11.411000	22.882789	0.000493	20.764742
249.081437	-2.992200	3.825400	-11.446000	22.899925	0.000493	20.752038
250.087390	-2.971400	3.825800	-11.367000	22.898701	0.000496	20.754131
251.080760	-3.000300	3.824400	-11.474000	22.896286	0.000493	20.746495
252.082458	-3.011100	3.824400	-11.515000	22.894197	0.000494	20.744402
253.079281	-2.988000	3.825400	-11.429000	22.925482	0.000494	20.774324
254.083781	-2.999100	3.824200	-11.468000	22.904055	0.000498	20.746692
255.081324	-3.012100	3.824100	-11.517000	22.905548	0.000496	20.752930
256.084645	-2.995000	3.823500	-11.450000	22.896784	0.000496	20.762642
257.081288	-2.993400	3.822500	-11.441000	22.922544	0.000495	20.773751
258.079097	-2.961900	3.824100	-11.326000	22.916661	0.000496	20.778289
259.089708	-2.996600	3.823400	-11.456000	22.913299	0.000494	20.773498
260.079860	-2.980200	3.823100	-11.391000	22.950859	0.000496	20.745220
261.085618	-3.016700	3.823700	-11.535000	22.958505	0.000497	20.756200
262.084573	-3.003800	3.824100	-11.486000	22.937313	0.000497	20.767211
263.081798	-3.009500	3.822300	-11.503000	23.003887	0.000498	20.749512
264.082739	-3.012900	3.821300	-11.511000	23.013597	0.000497	20.779156
265.082277	-2.988700	3.821400	-11.419000	23.004532	0.000497	20.770073
266.085603	-2.987600	3.821500	-11.416000	22.972629	0.000500	20.777463
267.083704	-2.999600	3.821800	-11.463000	23.015792	0.000500	20.747215
268.084367	-3.014800	3.819600	-11.514000	23.020352	0.000499	20.758423
269.082165	-2.986900	3.821000	-11.412000	23.057404	0.000499	20.764253
270.121481	-3.012600	3.820600	-11.509000	23.066843	0.000499	20.776557
271.088711	-3.016300	3.819500	-11.519000	23.069266	0.000499	20.760492
272.100771	-3.006700	3.821600	-11.489000	23.067716	0.000498	20.773638
