LabVIEW Measurement	
Writer_Version	2
Reader_Version	2
Separator	Tab
Decimal_Separator	.
Multi_Headings	No
X_Columns	One
Time_Pref	Absolute
Operator	admin
Description	Clolumns are: time, Current, Voltage, Power, Battery Temp, and Chamber Temp
Date	2024/08/16
Time	13:07:17.8513970375061035156
***End_of_Header***	
	
Channels	6						
Samples	1	1	1	1	1	1	
Date	2024/09/15	2024/09/15	2024/09/15	2024/09/15	2024/09/15	2024/09/15	
Time	13:53:04.2361550331115722656	13:53:04.2424535751342773438	13:53:04.2493257522583007813	13:53:04.2201814651489257813	13:53:04.2201814651489257813	13:53:04.2201814651489257813	
X_Dimension	Time	Time	Time	Time	Time	Time	
X0	0.0000000000000000E+0	0.0000000000000000E+0	0.0000000000000000E+0	0.0000000000000000E+0	0.0000000000000000E+0	0.0000000000000000E+0	
Delta_X	1.000000	1.000000	1.000000	1.000000	1.000000	1.000000	
***End_of_Header***							
X_Value	Untitled	Untitled 1	Untitled 2	Untitled 3	Untitled 4	Untitled 5	Comment
0.000000	0.024531	4.085000	0.100300	20.761867	0.000471	20.727253
1.002048	-2.985300	3.914900	-11.685000	20.789615	0.000469	20.721334
2.000972	-3.011200	3.906700	-11.763000	20.761913	0.000469	20.742946
3.004654	-2.983700	3.904400	-11.649000	20.761064	0.000469	20.716491
4.000670	-2.980600	3.902100	-11.629000	20.775438	0.000469	20.739875
5.003925	-2.982600	3.898200	-11.626000	20.783372	0.000466	20.728368
6.001372	-3.010200	3.896400	-11.728000	20.801715	0.000467	20.757144
7.002398	-2.990200	3.893600	-11.641000	20.817434	0.000468	20.731611
8.001650	-2.998200	3.892300	-11.669000	20.807405	0.000463	20.749083
9.001886	-3.007100	3.889700	-11.696000	20.810173	0.000465	20.749955
10.003841	-3.016700	3.886500	-11.723000	20.827841	0.000462	20.734431
11.001363	-3.006400	3.887600	-11.687000	20.837075	0.000462	20.745563
12.001256	-3.005400	3.885900	-11.678000	20.826393	0.000464	20.741519
13.006054	-2.999500	3.883400	-11.648000	20.835127	0.000462	20.749779
14.001656	-3.004200	3.882700	-11.664000	20.865573	0.000462	20.726646
15.000954	-2.994000	3.882800	-11.625000	20.843088	0.000460	20.749679
16.004110	-3.017200	3.880600	-11.708000	20.865974	0.000462	20.746014
17.001127	-2.984500	3.882100	-11.585000	20.852922	0.000459	20.757618
18.003176	-3.004700	3.877800	-11.650000	20.884364	0.000462	20.745439
19.001987	-2.990300	3.878200	-11.596000	20.888682	0.000461	20.769673
20.002855	-3.004400	3.877700	-11.648000	20.889206	0.000458	20.763085
21.002947	-3.005700	3.876600	-11.651000	20.914585	0.000460	20.757171
22.004277	-3.011900	3.875600	-11.672000	20.912239	0.000461	20.746764
23.004163	-3.008000	3.875900	-11.657000	20.933574	0.000461	20.740600
24.003551	-3.007400	3.874800	-11.652000	20.947546	0.000459	20.755523
25.004344	-3.000400	3.874500	-11.624000	20.943455	0.000458	20.766605
26.005760	-3.020500	3.871500	-11.693000	20.956407	0.000460	20.737831
27.005422	-3.006000	3.872400	-11.640000	20.966385	0.000461	20.764882
28.005226	-3.001800	3.871000	-11.619000	20.966085	0.000462	20.744666
29.005870	-2.979800	3.871700	-11.536000	20.994753	0.000459	20.763383
30.006011	-2.995000	3.871100	-11.593000	20.994376	0.000459	20.733607
31.007709	-3.015800	3.870300	-11.671000	20.994602	0.000459	20.751851
32.009182	-3.009400	3.870200	-11.646000	21.001636	0.000461	20.755568
33.006880	-2.992300	3.870600	-11.581000	21.009517	0.000459	20.741639
34.006943	-3.017200	3.869200	-11.673000	21.028480	0.000458	20.740691
35.010201	-3.005500	3.869000	-11.627000	21.025534	0.000457	20.755763
36.008012	-3.003000	3.869400	-11.619000	21.030097	0.000460	20.751317
37.009871	-3.006500	3.867800	-11.628000	21.065969	0.000459	20.761119
38.009291	-2.997100	3.867500	-11.590000	21.080666	0.000461	20.749267
39.010351	-3.002000	3.866500	-11.606000	21.070134	0.000459	20.759121
40.009904	-3.004900	3.867900	-11.622000	21.082904	0.000457	20.753876
41.009686	-2.989200	3.866900	-11.557000	21.087741	0.000458	20.771991
42.012907	-2.976600	3.867800	-11.511000	21.090958	0.000458	20.757191
43.010554	-3.006000	3.865700	-11.620000	21.117576	0.000456	20.789980
44.010983	-3.018100	3.866600	-11.669000	21.126280	0.000456	20.750322
45.011663	-3.021200	3.864600	-11.675000	21.107566	0.000458	20.755785
46.009756	-3.013100	3.866500	-11.649000	21.137127	0.000455	20.767811
47.011759	-3.002000	3.865100	-11.603000	21.137996	0.000456	20.776741
48.013715	-3.014200	3.864800	-11.648000	21.148298	0.000457	20.781356
49.011365	-3.008700	3.864800	-11.627000	21.162763	0.000456	20.781601
50.012217	-3.017100	3.862600	-11.653000	21.174437	0.000456	20.779054
51.013515	-3.002700	3.862600	-11.598000	21.178827	0.000455	20.792929
52.013421	-2.996100	3.863600	-11.575000	21.177676	0.000457	20.783717
53.017575	-3.001100	3.864100	-11.596000	21.208958	0.000454	20.770912
54.014129	-3.004700	3.862900	-11.606000	21.215991	0.000456	20.780319
55.013852	-2.985300	3.863200	-11.532000	21.219011	0.000455	20.780495
56.012082	-3.004600	3.861000	-11.600000	21.258446	0.000453	20.783910
57.013610	-2.986300	3.862100	-11.532000	21.226963	0.000454	20.779915
58.016220	-2.997300	3.862100	-11.575000	21.271216	0.000454	20.772029
59.015615	-2.982900	3.862800	-11.522000	21.267745	0.000454	20.791790
60.014185	-2.996600	3.861300	-11.570000	21.272333	0.000453	20.803493
61.013287	-2.987100	3.861300	-11.533000	21.293287	0.000454	20.790790
62.015350	-2.993700	3.861800	-11.561000	21.291813	0.000456	20.786471
63.014168	-3.014800	3.859600	-11.635000	21.287022	0.000454	20.787368
64.014434	-2.999900	3.859600	-11.577000	21.310268	0.000454	20.800193
65.015641	-2.996500	3.860600	-11.567000	21.317626	0.000453	20.792855
66.014956	-2.986400	3.861800	-11.532000	21.348755	0.000452	20.787962
67.015300	-2.990900	3.860400	-11.545000	21.347906	0.000454	20.783320
68.015956	-2.988300	3.861500	-11.538000	21.340795	0.000453	20.782844
69.020950	-2.998600	3.859800	-11.573000	21.340770	0.000452	20.801311
70.015509	-2.999000	3.860300	-11.576000	21.365489	0.000453	20.798066
71.016474	-3.003500	3.861000	-11.595000	21.370402	0.000454	20.793973
72.017053	-3.026700	3.858500	-11.677000	21.383521	0.000452	20.792399
73.017142	-3.006200	3.860000	-11.603000	21.395842	0.000455	20.808046
74.016925	-3.023500	3.859500	-11.668000	21.420386	0.000454	20.796567
75.022344	-3.014600	3.858000	-11.629000	21.407464	0.000454	20.796441
76.019392	-3.009200	3.857500	-11.608000	21.422131	0.000455	20.780769
77.021168	-3.004100	3.858500	-11.590000	21.420910	0.000456	20.790453
78.020072	-3.004100	3.858700	-11.591000	21.437095	0.000453	20.799535
79.023541	-3.014900	3.856900	-11.627000	21.454279	0.000455	20.803452
80.023268	-2.993900	3.856700	-11.546000	21.445175	0.000457	20.808094
81.025485	-3.002100	3.857500	-11.580000	21.468543	0.000456	20.811560
82.021380	-3.018400	3.857100	-11.642000	21.458693	0.000454	20.797437
83.022117	-3.023300	3.857000	-11.660000	21.481884	0.000456	20.783658
84.022356	-2.984700	3.857800	-11.513000	21.479815	0.000455	20.812881
85.023085	-3.004100	3.856500	-11.584000	21.508023	0.000457	20.797011
86.022378	-2.986400	3.856900	-11.517000	21.513358	0.000457	20.805194
87.022266	-3.010300	3.856000	-11.607000	21.524407	0.000456	20.812931
88.029392	-3.019100	3.856200	-11.641000	21.539943	0.000456	20.806192
89.021912	-3.003200	3.856700	-11.582000	21.558645	0.000455	20.808310
90.023910	-3.006500	3.855400	-11.590000	21.552086	0.000456	20.806014
91.025431	-3.004600	3.855400	-11.582000	21.562434	0.000458	20.816843
92.023631	-3.023500	3.854000	-11.652000	21.565773	0.000456	20.808805
93.023696	-3.000100	3.855000	-11.565000	21.578716	0.000457	20.807058
94.027118	-2.996800	3.855300	-11.552000	21.601909	0.000458	20.804662
95.023405	-2.979700	3.855900	-11.488000	21.594723	0.000459	20.827343
96.025135	-2.981400	3.856000	-11.496000	21.626220	0.000462	20.825672
97.024459	-3.000700	3.854800	-11.565000	21.614448	0.000459	20.792080
98.025046	-2.991200	3.856400	-11.534000	21.637538	0.000459	20.834153
99.024253	-3.007200	3.852900	-11.585000	21.637859	0.000460	20.816456
100.024483	-3.028900	3.854000	-11.672000	21.643969	0.000460	20.802182
101.026547	-3.005500	3.853100	-11.580000	21.677557	0.000460	20.824890
102.026965	-3.017200	3.854500	-11.629000	21.671669	0.000459	20.818997
103.025139	-3.006100	3.853800	-11.584000	21.678201	0.000461	20.810835
104.024411	-3.006900	3.852700	-11.584000	21.674608	0.000460	20.826205
105.026002	-2.991900	3.853800	-11.530000	21.703383	0.000460	20.825605
106.025381	-2.986100	3.853800	-11.506000	21.713554	0.000460	20.851904
107.028082	-3.016300	3.851900	-11.617000	21.705799	0.000459	20.834661
108.026212	-3.009400	3.853100	-11.595000	21.699636	0.000461	20.835606
109.026866	-2.997000	3.852900	-11.546000	21.724145	0.000461	20.837848
110.028430	-3.013600	3.852000	-11.607000	21.747459	0.000460	20.821353
111.027542	-3.004400	3.851100	-11.570000	21.748506	0.000462	20.857012
112.031490	-2.995000	3.852100	-11.535000	21.753165	0.000462	20.837969
113.028876	-3.020900	3.850300	-11.631000	21.785953	0.000464	20.833801
114.028882	-2.991000	3.852300	-11.522000	21.764931	0.000464	20.822244
115.028571	-3.016300	3.850400	-11.613000	21.799960	0.000463	20.845922
116.032672	-3.002900	3.851900	-11.565000	21.803998	0.000465	20.830524
117.034569	-2.985800	3.851400	-11.499000	21.790107	0.000463	20.842225
118.031144	-2.993700	3.852900	-11.533000	21.795939	0.000464	20.840476
119.029787	-2.999300	3.850600	-11.548000	21.804564	0.000466	20.831091
120.031864	-3.009700	3.851300	-11.590000	21.820745	0.000466	20.828794
121.031479	-2.985800	3.851600	-11.500000	21.820392	0.000467	20.839346
122.031976	-3.008800	3.850600	-11.585000	21.842457	0.000465	20.833456
123.033524	-3.001800	3.850400	-11.558000	21.831160	0.000467	20.848701
124.033263	-3.011400	3.848400	-11.588000	21.879527	0.000467	20.872455
125.033219	-2.990000	3.850800	-11.513000	21.885432	0.000467	20.864141
126.034336	-3.007000	3.850000	-11.576000	21.870397	0.000467	20.861421
127.034377	-3.006200	3.850200	-11.573000	21.897047	0.000468	20.837837
128.038287	-3.018200	3.848300	-11.614000	21.906468	0.000469	20.856275
129.033524	-3.013300	3.848700	-11.596000	21.900557	0.000468	20.856996
130.033390	-3.018800	3.847000	-11.612000	21.917333	0.000470	20.870468
131.034191	-3.001000	3.848200	-11.546000	21.917006	0.000469	20.883417
132.033948	-2.988400	3.847700	-11.497000	21.918649	0.000470	20.851398
133.037025	-2.997000	3.847700	-11.531000	21.933030	0.000470	20.865793
134.037566	-3.007400	3.847800	-11.571000	21.955192	0.000472	20.861425
135.034705	-3.012600	3.846600	-11.588000	21.956085	0.000472	20.866585
136.035095	-3.010500	3.848500	-11.585000	21.980042	0.000472	20.866384
137.041431	-3.002300	3.849000	-11.555000	21.985797	0.000472	20.879257
138.036259	-3.017800	3.845600	-11.604000	21.987440	0.000473	20.848661
139.037146	-2.987100	3.847900	-11.493000	21.999652	0.000473	20.870842
140.036622	-2.968400	3.848400	-11.422000	22.026173	0.000473	20.871787
141.037341	-2.998900	3.847300	-11.537000	22.032178	0.000474	20.862626
142.036211	-3.014800	3.846700	-11.595000	22.036912	0.000474	20.892966
143.037190	-3.009800	3.846900	-11.577000	22.034765	0.000477	20.862845
144.042639	-2.996100	3.846600	-11.524000	22.059217	0.000476	20.873572
145.037391	-3.006400	3.845900	-11.561000	22.049491	0.000474	20.885172
146.037704	-3.004400	3.846800	-11.556000	22.061978	0.000474	20.863060
147.038959	-3.021800	3.845100	-11.618000	22.055942	0.000475	20.884517
148.040027	-2.987900	3.845200	-11.489000	22.081690	0.000476	20.904128
149.039848	-2.996500	3.845700	-11.523000	22.108533	0.000474	20.893070
150.043071	-3.018800	3.844400	-11.604000	22.120022	0.000478	20.894141
151.041272	-3.013000	3.845400	-11.585000	22.114411	0.000478	20.888524
152.038591	-3.007600	3.844600	-11.562000	22.117050	0.000477	20.898277
153.040992	-3.004000	3.843800	-11.546000	22.138259	0.000476	20.908131
154.039119	-2.997600	3.844600	-11.523000	22.137559	0.000477	20.901740
155.041856	-3.006000	3.844200	-11.554000	22.149696	0.000477	20.890184
156.040088	-3.001500	3.844000	-11.537000	22.152036	0.000479	20.896794
157.038907	-3.011600	3.844300	-11.576000	22.173818	0.000478	20.902006
158.041002	-3.014400	3.843300	-11.585000	22.149537	0.000478	20.914680
159.040683	-2.993000	3.844500	-11.505000	22.182088	0.000478	20.898433
160.041261	-2.982700	3.844100	-11.465000	22.167105	0.000478	20.897183
161.043324	-3.010300	3.843400	-11.568000	22.183577	0.000480	20.907035
162.040690	-3.001700	3.843000	-11.534000	22.194145	0.000478	20.910029
163.042974	-3.006300	3.844300	-11.556000	22.201020	0.000479	20.899370
164.044863	-2.992900	3.843900	-11.504000	22.212158	0.000479	20.912417
165.048625	-3.015600	3.842200	-11.585000	22.240970	0.000479	20.912815
166.045572	-3.004800	3.841000	-11.541000	22.250862	0.000478	20.924615
167.043284	-2.974700	3.843100	-11.430000	22.229103	0.000478	20.909469
168.043535	-2.988300	3.843300	-11.484000	22.254273	0.000478	20.916652
169.046092	-2.989100	3.842100	-11.483000	22.281936	0.000479	20.910686
170.044520	-3.010100	3.841500	-11.561000	22.286422	0.000478	20.909488
171.048195	-3.019100	3.841200	-11.595000	22.324154	0.000478	20.923560
172.047579	-3.002400	3.841600	-11.533000	22.321885	0.000479	20.920815
173.046955	-2.998500	3.841200	-11.517000	22.305059	0.000479	20.919140
174.047125	-2.999500	3.842000	-11.522000	22.316398	0.000480	20.912476
175.047099	-3.025300	3.840400	-11.618000	22.339749	0.000481	20.923056
176.046738	-3.007100	3.840900	-11.549000	22.333867	0.000482	20.952249
177.051810	-3.006800	3.838800	-11.541000	22.346276	0.000482	20.927694
178.048691	-3.000200	3.841200	-11.523000	22.335111	0.000484	20.916989
179.046652	-3.006400	3.839400	-11.542000	22.348990	0.000482	20.932308
180.047782	-3.006200	3.839900	-11.543000	22.372590	0.000484	20.918009
181.047650	-3.007400	3.839100	-11.545000	22.352901	0.000482	20.907304
182.050315	-3.006600	3.840200	-11.545000	22.353473	0.000482	20.939167
183.048897	-2.997400	3.840600	-11.511000	22.387515	0.000482	20.924420
184.050117	-3.005300	3.840000	-11.539000	22.399351	0.000480	20.933426
185.049781	-2.987200	3.839600	-11.468000	22.432345	0.000482	20.923794
186.049253	-2.963200	3.840400	-11.379000	22.420308	0.000484	20.937816
187.051595	-2.979800	3.839500	-11.440000	22.416919	0.000482	20.907873
188.050986	-2.997200	3.838200	-11.502000	22.413503	0.000482	20.936693
189.050548	-3.009800	3.837600	-11.549000	22.446995	0.000484	20.935619
190.051290	-3.023000	3.837000	-11.598000	22.436530	0.000485	20.936518
191.052304	-3.001900	3.838200	-11.521000	22.466233	0.000484	20.923592
192.050974	-3.004900	3.838000	-11.532000	22.448291	0.000483	20.931227
193.051621	-2.987000	3.838400	-11.465000	22.465760	0.000482	20.927385
194.052491	-2.993400	3.836600	-11.484000	22.449213	0.000483	20.904653
195.055842	-3.004600	3.837100	-11.527000	22.464887	0.000484	20.929356
196.052696	-3.012500	3.836700	-11.558000	22.480960	0.000482	20.921745
197.052174	-3.007400	3.836100	-11.536000	22.495089	0.000484	20.913611
198.053373	-3.006000	3.835800	-11.530000	22.490879	0.000485	20.910817
199.051896	-3.005600	3.834500	-11.524000	22.491852	0.000485	20.916533
200.051802	-3.008500	3.835100	-11.537000	22.501619	0.000485	20.909720
201.051446	-3.008400	3.836200	-11.539000	22.502864	0.000484	20.896743
202.051601	-2.989600	3.837000	-11.470000	22.535359	0.000484	20.895622
203.051990	-2.976000	3.836000	-11.415000	22.555766	0.000486	20.915111
204.051052	-3.005900	3.834900	-11.526000	22.547046	0.000485	20.900688
205.051579	-2.996800	3.835100	-11.492000	22.546796	0.000487	20.909920
206.052452	-3.005200	3.835300	-11.524000	22.583973	0.000487	20.870345
207.052383	-2.993800	3.834700	-11.479000	22.592445	0.000488	20.896372
208.051932	-3.000400	3.833700	-11.502000	22.575427	0.000488	20.901138
209.055562	-2.997700	3.834300	-11.493000	22.602412	0.000490	20.902087
210.051732	-3.006400	3.833900	-11.525000	22.583849	0.000487	20.893452
211.051360	-3.018800	3.833400	-11.571000	22.593717	0.000487	20.893379
212.051744	-3.016900	3.834800	-11.568000	22.635103	0.000489	20.897846
213.053997	-2.995300	3.833500	-11.482000	22.631691	0.000487	20.889688
214.053642	-2.990500	3.833900	-11.465000	22.626284	0.000491	20.904185
215.057467	-2.996400	3.833100	-11.484000	22.635030	0.000488	20.882601
216.054134	-2.962400	3.835600	-11.362000	22.620529	0.000491	20.869026
217.054331	-3.017700	3.833000	-11.565000	22.629275	0.000491	20.872096
218.053258	-3.001400	3.832500	-11.502000	22.640115	0.000490	20.877263
219.053310	-2.996100	3.832800	-11.483000	22.632168	0.000491	20.896803
220.054358	-3.006200	3.832200	-11.519000	22.633164	0.000492	20.859397
221.055417	-2.987700	3.831600	-11.447000	22.640689	0.000491	20.887795
222.057155	-2.974600	3.832900	-11.400000	22.629304	0.000492	20.877815
223.054637	-2.965100	3.832800	-11.364000	22.629204	0.000492	20.877715
224.057186	-2.998200	3.830100	-11.483000	22.655044	0.000493	20.868035
225.060253	-3.001100	3.831500	-11.498000	22.676869	0.000495	20.897480
226.055902	-3.014000	3.831200	-11.546000	22.694310	0.000493	20.882709
227.058139	-3.007900	3.830500	-11.521000	22.701512	0.000496	20.873802
228.058090	-3.005600	3.830500	-11.512000	22.730138	0.000494	20.834200
229.055841	-3.008100	3.829700	-11.520000	22.713172	0.000496	20.865568
230.055173	-3.000100	3.830900	-11.492000	22.699045	0.000493	20.874177
231.056475	-3.003500	3.829700	-11.502000	22.714245	0.000496	20.873281
232.056583	-3.006100	3.829500	-11.510000	22.719802	0.000497	20.871260
233.058622	-2.982800	3.828600	-11.418000	22.712378	0.000496	20.881367
234.055496	-3.026900	3.829900	-11.592000	22.731611	0.000498	20.872183
235.057420	-3.021400	3.828300	-11.566000	22.774514	0.000495	20.862530
236.059053	-3.013400	3.828300	-11.535000	22.774663	0.000495	20.875480
237.056445	-2.974400	3.828900	-11.387000	22.793250	0.000499	20.861858
238.058483	-2.992000	3.828400	-11.453000	22.784306	0.000497	20.868546
239.055775	-2.980500	3.829200	-11.412000	22.758948	0.000496	20.861636
240.057778	-2.993800	3.828500	-11.460000	22.772949	0.000497	20.861911
241.057794	-2.996400	3.827900	-11.468000	22.830770	0.000497	20.846815
242.058403	-3.000900	3.827100	-11.484000	22.830298	0.000497	20.849661
243.058774	-2.990100	3.828400	-11.446000	22.822578	0.000498	20.843349
244.059186	-3.012700	3.828100	-11.532000	22.830675	0.000496	20.861892
245.058087	-3.004900	3.826700	-11.497000	22.831622	0.000498	20.853831
246.058206	-2.996300	3.828100	-11.469000	22.799264	0.000498	20.854133
247.059968	-3.014900	3.825500	-11.533000	22.795431	0.000499	20.838440
248.060864	-2.993500	3.825500	-11.450000	22.813119	0.000500	20.854262
249.060182	-2.987500	3.827100	-11.433000	22.829910	0.000499	20.845479
250.060888	-2.996100	3.825700	-11.461000	22.828915	0.000499	20.844956
251.065247	-2.992000	3.825400	-11.444000	22.817234	0.000499	20.868815
252.061353	-2.970900	3.826900	-11.368000	22.822242	0.000499	20.841591
253.062316	-2.996500	3.825300	-11.461000	22.847902	0.000499	20.846907
254.061828	-3.004400	3.824100	-11.487000	22.837815	0.000500	20.844863
255.061925	-3.019300	3.824100	-11.545000	22.872043	0.000502	20.854496
256.062408	-2.982400	3.826000	-11.410000	22.865617	0.000500	20.850430
257.063852	-2.999900	3.823900	-11.471000	22.883256	0.000501	20.830643
258.064203	-2.997600	3.824300	-11.463000	22.882086	0.000501	20.844644
259.060260	-2.988900	3.824700	-11.430000	22.893397	0.000501	20.836535
260.061327	-3.010900	3.823400	-11.511000	22.897605	0.000504	20.829372
261.064173	-2.990600	3.823600	-11.434000	22.919655	0.000500	20.831074
262.063027	-3.002400	3.824400	-11.481000	22.883186	0.000502	20.848116
263.065034	-3.011700	3.823000	-11.514000	22.879229	0.000501	20.832773
264.060938	-2.995700	3.823400	-11.453000	22.905336	0.000501	20.839961
265.062982	-2.987600	3.823700	-11.422000	22.881101	0.000504	20.836544
266.062877	-3.009200	3.821000	-11.497000	22.919037	0.000502	20.818602
267.062707	-3.008600	3.822300	-11.499000	22.937374	0.000502	20.831756
268.066290	-2.972900	3.822300	-11.361000	22.947115	0.000505	20.824447
269.063159	-3.006000	3.820200	-11.483000	22.961215	0.000503	20.811073
270.063139	-2.999800	3.821900	-11.463000	22.967095	0.000504	20.807955
271.065693	-3.009100	3.820500	-11.496000	22.969689	0.000506	20.834261
272.064760	-3.003300	3.819800	-11.471000	22.972878	0.000504	20.830344
