LabVIEW Measurement	
Writer_Version	2
Reader_Version	2
Separator	Tab
Decimal_Separator	.
Multi_Headings	No
X_Columns	One
Time_Pref	Absolute
Operator	admin
Description	Clolumns are: time, Current, Voltage, Power, Battery Temp, and Chamber Temp
Date	2024/08/16
Time	13:07:17.8513970375061035156
***End_of_Header***	
	
Channels	6						
Samples	1	1	1	1	1	1	
Date	2024/09/05	2024/09/05	2024/09/05	2024/09/05	2024/09/05	2024/09/05	
Time	04:17:42.0779848098754882813	04:17:42.0840330123901367188	04:17:42.0899801254272460938	04:17:42.0603809356689453125	04:17:42.0603809356689453125	04:17:42.0603809356689453125	
X_Dimension	Time	Time	Time	Time	Time	Time	
X0	0.0000000000000000E+0	0.0000000000000000E+0	0.0000000000000000E+0	0.0000000000000000E+0	0.0000000000000000E+0	0.0000000000000000E+0	
Delta_X	1.000000	1.000000	1.000000	1.000000	1.000000	1.000000	
***End_of_Header***							
X_Value	Untitled	Untitled 1	Untitled 2	Untitled 3	Untitled 4	Untitled 5	Comment
0.000000	-0.004231	4.087500	-0.017261	20.806329	0.000459	20.896414
0.996997	-3.006200	3.923200	-11.793000	20.815264	0.000459	20.901555
1.998374	-2.977900	3.918700	-11.668000	20.822376	0.000458	20.878324
2.998027	-2.967100	3.914500	-11.614000	20.798793	0.000454	20.893619
3.997584	-3.014900	3.910000	-11.788000	20.806330	0.000457	20.894045
4.999824	-2.993500	3.906200	-11.693000	20.815837	0.000459	20.879371
5.999579	-2.994800	3.905100	-11.693000	20.839046	0.000456	20.891674
6.998556	-3.020900	3.901300	-11.784000	20.818483	0.000455	20.887706
7.999374	-3.005800	3.900400	-11.723000	20.840818	0.000455	20.896764
8.999867	-3.011900	3.899400	-11.744000	20.850150	0.000455	20.883813
9.999842	-3.024400	3.895200	-11.779000	20.869289	0.000454	20.877824
11.002739	-2.984500	3.894400	-11.621000	20.852471	0.000456	20.875703
12.001190	-2.991200	3.894200	-11.646000	20.845558	0.000452	20.889652
13.000636	-3.000400	3.891300	-11.674000	20.874779	0.000452	20.893744
14.003017	-2.994300	3.891700	-11.652000	20.875478	0.000451	20.874056
15.000362	-2.991700	3.891600	-11.642000	20.882689	0.000450	20.869413
16.000359	-2.994400	3.888900	-11.645000	20.879370	0.000450	20.864672
17.000518	-3.003900	3.888300	-11.678000	20.885059	0.000449	20.875103
17.997763	-2.992200	3.887000	-11.630000	20.892869	0.000449	20.881491
18.999316	-2.998600	3.887200	-11.656000	20.913381	0.000449	20.858384
20.001430	-3.021400	3.885800	-11.739000	20.920991	0.000448	20.861252
21.000792	-2.978900	3.886200	-11.575000	20.941976	0.000450	20.870386
22.001371	-3.023800	3.883700	-11.742000	20.935264	0.000447	20.883586
23.005853	-3.005300	3.883400	-11.669000	20.941851	0.000448	20.857459
24.001625	-3.016300	3.882800	-11.710000	20.946167	0.000447	20.861776
25.000500	-3.032000	3.881200	-11.766000	20.936959	0.000447	20.862050
26.007771	-3.007600	3.880900	-11.672000	20.954775	0.000446	20.860901
27.000776	-3.013900	3.881300	-11.697000	20.948937	0.000447	20.855537
28.002628	-2.992600	3.881200	-11.615000	20.973264	0.000444	20.868962
29.005527	-2.990500	3.879300	-11.599000	20.977181	0.000446	20.859129
30.003357	-3.001100	3.881000	-11.646000	20.999663	0.000446	20.847950
31.000808	-2.989600	3.878700	-11.595000	21.006224	0.000444	20.833177
32.003482	-2.982600	3.879100	-11.569000	21.010465	0.000444	20.837892
33.001979	-2.978200	3.878300	-11.549000	21.013784	0.000443	20.836944
34.003885	-3.000700	3.877000	-11.633000	21.015281	0.000444	20.844605
35.005674	-3.022600	3.876100	-11.714000	21.031773	0.000444	20.844505
36.003450	-3.001700	3.875900	-11.633000	21.040755	0.000442	20.860601
37.004095	-2.989400	3.876400	-11.587000	21.026907	0.000441	20.860500
38.008393	-2.996500	3.877200	-11.616000	21.065729	0.000442	20.849545
39.005893	-3.008900	3.874900	-11.658000	21.042849	0.000442	20.839463
40.006093	-2.979800	3.875900	-11.549000	21.080523	0.000439	20.850592
41.013486	-3.022000	3.874900	-11.709000	21.087384	0.000441	20.859825
42.009669	-2.991100	3.874900	-11.590000	21.080947	0.000440	20.852439
43.010179	-2.996600	3.874000	-11.608000	21.107717	0.000439	20.846973
44.012889	-3.014900	3.874100	-11.679000	21.126802	0.000441	20.845201
45.007269	-3.021800	3.872400	-11.701000	21.115950	0.000440	20.853785
46.008275	-3.021000	3.872500	-11.699000	21.125280	0.000441	20.846049
47.007652	-3.010000	3.871200	-11.652000	21.140050	0.000438	20.865090
48.006703	-3.024900	3.872000	-11.712000	21.148282	0.000437	20.838712
49.008052	-2.977900	3.873600	-11.535000	21.167067	0.000439	20.838063
50.007714	-2.995600	3.873300	-11.602000	21.158610	0.000439	20.843353
51.007749	-2.983800	3.871500	-11.550000	21.170784	0.000438	20.839410
52.008580	-2.996100	3.872500	-11.602000	21.178367	0.000439	20.849366
53.009109	-2.983100	3.871700	-11.549000	21.187324	0.000439	20.841731
54.007652	-3.013800	3.869000	-11.659000	21.203014	0.000438	20.844624
55.009474	-2.997000	3.871800	-11.603000	21.216710	0.000436	20.814704
56.014270	-2.997000	3.870300	-11.598000	21.222997	0.000438	20.840433
57.010135	-3.023500	3.870700	-11.703000	21.221974	0.000438	20.840832
58.011138	-3.017800	3.868900	-11.674000	21.208877	0.000439	20.826308
59.014103	-3.009500	3.870200	-11.646000	21.260240	0.000440	20.835016
60.009405	-3.002300	3.869400	-11.616000	21.232650	0.000439	20.855304
61.012511	-2.998500	3.870200	-11.604000	21.247943	0.000439	20.834094
62.019227	-3.011000	3.868500	-11.647000	21.248790	0.000439	20.850114
63.011065	-2.980100	3.868500	-11.528000	21.265877	0.000438	20.835439
64.011892	-3.004500	3.869200	-11.623000	21.289999	0.000437	20.824484
65.012674	-3.007100	3.868900	-11.634000	21.295236	0.000438	20.799379
66.010834	-3.013000	3.867700	-11.652000	21.282639	0.000438	20.810009
67.011830	-2.994200	3.868800	-11.583000	21.290497	0.000438	20.829250
68.014214	-3.000900	3.868600	-11.608000	21.302271	0.000439	20.810209
69.013627	-2.997900	3.866500	-11.590000	21.311001	0.000439	20.832693
70.016259	-3.017500	3.866600	-11.666000	21.302794	0.000440	20.822586
71.017769	-2.989200	3.868200	-11.562000	21.330705	0.000441	20.820639
72.015987	-3.018900	3.866700	-11.672000	21.353280	0.000441	20.811456
73.016617	-3.021800	3.867600	-11.685000	21.364029	0.000439	20.816995
74.017240	-3.033700	3.865900	-11.728000	21.361535	0.000439	20.794110
75.016523	-3.007800	3.866800	-11.629000	21.393611	0.000440	20.820039
76.015814	-3.010300	3.865800	-11.636000	21.369143	0.000440	20.815946
77.019267	-3.009900	3.866400	-11.637000	21.370638	0.000440	20.806063
78.015487	-2.975200	3.867200	-11.504000	21.396130	0.000439	20.821610
79.017060	-2.984000	3.865700	-11.533000	21.406431	0.000440	20.809632
80.018830	-2.986900	3.864200	-11.541000	21.419349	0.000438	20.813548
81.017521	-3.017100	3.864300	-11.657000	21.441672	0.000441	20.820710
82.017200	-2.991600	3.865500	-11.563000	21.427232	0.000439	20.828072
83.019005	-2.990600	3.866400	-11.562000	21.420721	0.000442	20.833886
84.019045	-2.997500	3.864200	-11.582000	21.431870	0.000440	20.840773
85.021715	-2.989600	3.865000	-11.554000	21.462548	0.000441	20.813622
86.019119	-2.985800	3.866300	-11.543000	21.454816	0.000441	20.814895
87.018271	-3.002000	3.864600	-11.600000	21.462946	0.000443	20.819237
88.019229	-3.000200	3.863900	-11.591000	21.461948	0.000443	20.817290
89.019604	-3.021200	3.863100	-11.669000	21.462697	0.000442	20.816616
90.018594	-3.030500	3.863700	-11.708000	21.474643	0.000443	20.824302
91.019716	-3.031700	3.864200	-11.714000	21.485242	0.000441	20.794605
92.021314	-2.999700	3.864300	-11.591000	21.489682	0.000441	20.803314
93.021832	-2.984600	3.863200	-11.529000	21.508586	0.000442	20.820333
94.022114	-2.963000	3.863800	-11.448000	21.500929	0.000442	20.805085
95.021961	-3.000700	3.862300	-11.588000	21.509932	0.000442	20.807930
96.022659	-2.997900	3.862800	-11.579000	21.530532	0.000443	20.815741
97.023121	-2.997700	3.862800	-11.578000	21.571208	0.000442	20.820881
98.026035	-3.011800	3.862600	-11.632000	21.564200	0.000441	20.800593
99.022799	-2.991900	3.862600	-11.555000	21.568713	0.000443	20.799419
100.022615	-3.021600	3.861500	-11.667000	21.569586	0.000442	20.806456
101.025709	-3.001700	3.860600	-11.587000	21.593003	0.000444	20.801440
102.023761	-3.007300	3.861300	-11.610000	21.597168	0.000444	20.808453
103.025937	-3.002200	3.860500	-11.589000	21.598389	0.000443	20.816787
104.028790	-2.987600	3.861000	-11.534000	21.586644	0.000446	20.809775
105.025483	-2.991200	3.861900	-11.551000	21.627192	0.000444	20.815739
106.025923	-2.984700	3.860500	-11.520000	21.636818	0.000443	20.800241
107.028316	-2.977500	3.860900	-11.495000	21.632529	0.000442	20.785518
108.026148	-2.998100	3.861700	-11.577000	21.651183	0.000445	20.805134
109.025858	-3.005700	3.860600	-11.603000	21.641731	0.000445	20.808951
110.032621	-2.984900	3.861100	-11.523000	21.646244	0.000442	20.804933
111.026261	-3.002800	3.861000	-11.593000	21.663226	0.000444	20.808651
112.028264	-3.006000	3.860100	-11.603000	21.658513	0.000445	20.783546
113.029538	-2.995700	3.859700	-11.562000	21.651480	0.000444	20.800690
114.025848	-2.992700	3.860700	-11.553000	21.654298	0.000444	20.793552
115.025854	-3.016000	3.858500	-11.636000	21.662028	0.000445	20.797495
116.031457	-3.016400	3.859600	-11.642000	21.668362	0.000445	20.790083
117.026455	-3.008300	3.859200	-11.609000	21.709258	0.000444	20.788337
118.033441	-3.012100	3.860500	-11.627000	21.695093	0.000447	20.792179
119.032382	-3.020100	3.858600	-11.652000	21.733893	0.000448	20.817733
120.028897	-3.012000	3.858200	-11.620000	21.743992	0.000446	20.784693
121.029353	-3.023800	3.857900	-11.664000	21.738207	0.000446	20.796446
122.031793	-3.005200	3.858700	-11.595000	21.740500	0.000446	20.814388
123.028707	-2.985900	3.858700	-11.520000	21.746584	0.000448	20.783968
124.032847	-2.984500	3.859900	-11.519000	21.746458	0.000449	20.798541
125.034458	-2.996700	3.859100	-11.564000	21.745511	0.000448	20.795696
126.027429	-2.975400	3.859500	-11.483000	21.779496	0.000448	20.796519
127.032787	-2.986800	3.859900	-11.528000	21.783261	0.000446	20.794598
128.031244	-2.992700	3.857900	-11.544000	21.799119	0.000447	20.800986
129.029107	-2.975000	3.857900	-11.477000	21.791614	0.000450	20.778301
130.031261	-3.002600	3.857900	-11.582000	21.805303	0.000449	20.794847
131.036899	-3.003500	3.858500	-11.587000	21.800341	0.000447	20.798416
132.029955	-3.012500	3.856700	-11.617000	21.799143	0.000449	20.785837
133.033902	-2.994800	3.857500	-11.551000	21.799941	0.000449	20.783316
134.034215	-2.996500	3.856900	-11.557000	21.824425	0.000450	20.791701
135.031562	-3.000800	3.857400	-11.575000	21.821333	0.000449	20.769640
136.030089	-2.993000	3.856700	-11.542000	21.855218	0.000451	20.796917
137.032081	-3.010300	3.856300	-11.608000	21.858533	0.000451	20.794545
138.034286	-3.001400	3.855600	-11.572000	21.884063	0.000451	20.794495
139.031804	-3.014600	3.856500	-11.625000	21.889723	0.000452	20.789255
140.032353	-3.003900	3.856000	-11.582000	21.922208	0.000451	20.788106
141.033158	-2.990100	3.856600	-11.531000	21.906177	0.000452	20.788181
142.035117	-3.012500	3.856200	-11.616000	21.904631	0.000452	20.791375
143.041226	-3.006600	3.854800	-11.589000	21.925873	0.000451	20.794619
144.038171	-2.987700	3.855400	-11.518000	21.935272	0.000450	20.789803
145.033849	-2.997500	3.855200	-11.556000	21.960501	0.000452	20.788505
146.032698	-2.989200	3.854800	-11.521000	21.975035	0.000450	20.773182
147.033936	-2.995600	3.854600	-11.546000	21.973139	0.000452	20.777922
148.034466	-3.005400	3.855300	-11.586000	21.979621	0.000451	20.786307
149.034865	-3.005600	3.853900	-11.583000	21.964787	0.000454	20.781890
150.041806	-3.020000	3.853100	-11.636000	21.953369	0.000454	20.775202
151.035306	-2.999300	3.854800	-11.561000	21.997096	0.000453	20.784360
152.034336	-3.005200	3.854400	-11.583000	22.008239	0.000453	20.783661
153.036446	-3.012900	3.852700	-11.607000	22.019856	0.000453	20.773005
154.036089	-2.963700	3.853500	-11.419000	21.994702	0.000453	20.765842
155.039053	-2.989500	3.853400	-11.519000	21.996048	0.000453	20.769086
156.037665	-2.975200	3.855100	-11.469000	22.003925	0.000454	20.756109
157.038137	-2.978300	3.854600	-11.479000	21.990538	0.000457	20.757880
158.039776	-2.991500	3.852500	-11.524000	22.013173	0.000455	20.785755
159.042511	-3.000100	3.852800	-11.558000	22.035036	0.000454	20.763545
160.038505	-2.987700	3.853100	-11.511000	22.053308	0.000454	20.764767
161.039322	-2.995000	3.851500	-11.534000	22.055950	0.000455	20.767412
162.041253	-3.009500	3.852600	-11.593000	22.072702	0.000458	20.772329
163.040247	-2.994800	3.852800	-11.536000	22.069884	0.000456	20.762395
164.038045	-2.984200	3.851000	-11.492000	22.030024	0.000455	20.755682
165.041248	-3.018200	3.852500	-11.627000	22.063028	0.000456	20.771653
166.040129	-3.007100	3.850800	-11.579000	22.064150	0.000457	20.784157
167.040358	-3.014000	3.850700	-11.605000	22.068762	0.000456	20.760323
168.040724	-2.999500	3.852300	-11.554000	22.089252	0.000456	20.778466
169.040579	-2.978400	3.851400	-11.470000	22.102114	0.000458	20.775696
170.039650	-3.021700	3.851700	-11.637000	22.122728	0.000459	20.756979
171.043378	-2.993600	3.851000	-11.528000	22.117394	0.000457	20.772975
172.040193	-3.007300	3.849900	-11.577000	22.113231	0.000459	20.753159
173.041946	-3.009500	3.850400	-11.587000	22.137709	0.000458	20.747794
174.041286	-3.010600	3.851300	-11.593000	22.136039	0.000460	20.764615
175.042990	-2.994900	3.851000	-11.533000	22.144638	0.000459	20.767060
176.041817	-2.972500	3.850500	-11.445000	22.139453	0.000462	20.743850
177.044574	-2.988500	3.849600	-11.503000	22.160192	0.000461	20.761770
178.043509	-3.015600	3.849400	-11.607000	22.169190	0.000459	20.749915
179.045013	-2.994700	3.848900	-11.525000	22.200322	0.000461	20.768757
180.044639	-2.978200	3.850200	-11.465000	22.188656	0.000460	20.771302
181.042099	-2.998300	3.848600	-11.538000	22.199673	0.000458	20.752460
182.044056	-3.008800	3.849500	-11.582000	22.210740	0.000458	20.759274
183.043625	-2.999500	3.849300	-11.544000	22.199947	0.000459	20.761270
184.043335	-3.004100	3.849400	-11.563000	22.215401	0.000462	20.738809
185.043855	-3.022500	3.848000	-11.629000	22.220710	0.000462	20.720890
186.046218	-2.996600	3.849200	-11.534000	22.226342	0.000459	20.740755
187.045414	-3.028800	3.847100	-11.650000	22.246407	0.000461	20.751363
188.043809	-2.988900	3.849100	-11.503000	22.228861	0.000462	20.759873
189.045817	-3.004000	3.847100	-11.556000	22.223327	0.000463	20.740581
190.043844	-2.977500	3.849300	-11.460000	22.212111	0.000464	20.749266
191.044273	-2.995100	3.846600	-11.520000	22.246781	0.000465	20.757427
192.044021	-2.992900	3.847400	-11.513000	22.248052	0.000463	20.725981
193.045831	-3.009500	3.846200	-11.574000	22.267866	0.000463	20.758625
194.046523	-3.003200	3.846800	-11.551000	22.301264	0.000464	20.731372
195.050057	-3.006300	3.845700	-11.559000	22.300864	0.000464	20.751836
196.046643	-2.999500	3.847800	-11.540000	22.313849	0.000464	20.739708
197.047363	-3.021200	3.844800	-11.615000	22.338472	0.000466	20.740656
198.053890	-2.992600	3.846300	-11.509000	22.345176	0.000465	20.734092
199.046696	-3.000000	3.846300	-11.538000	22.340591	0.000467	20.745623
200.047510	-3.002800	3.846300	-11.549000	22.341887	0.000466	20.746920
201.047902	-3.021200	3.844900	-11.615000	22.344179	0.000468	20.730249
202.046710	-3.019600	3.844300	-11.608000	22.361774	0.000465	20.745498
203.046764	-2.999100	3.844700	-11.530000	22.369998	0.000468	20.757052
204.046991	-3.006800	3.844400	-11.558000	22.353750	0.000467	20.736988
205.049214	-3.009100	3.843700	-11.565000	22.383879	0.000467	20.742029
206.048394	-3.013200	3.843400	-11.580000	22.355644	0.000468	20.747894
207.050047	-3.027200	3.843100	-11.633000	22.381363	0.000469	20.755630
208.047697	-3.012900	3.843200	-11.578000	22.357662	0.000469	20.743277
209.048420	-3.001700	3.843200	-11.534000	22.334685	0.000469	20.730225
210.050149	-2.985900	3.844700	-11.479000	22.370448	0.000469	20.747545
211.050137	-3.003100	3.842800	-11.539000	22.390460	0.000471	20.736290
212.048757	-3.002400	3.842000	-11.534000	22.419492	0.000470	20.719369
213.050586	-2.979700	3.843500	-11.451000	22.451763	0.000471	20.733670
214.049803	-2.999000	3.843300	-11.525000	22.449745	0.000470	20.725959
215.049263	-2.995400	3.843100	-11.511000	22.466242	0.000472	20.733945
216.051126	-3.025900	3.841000	-11.622000	22.477032	0.000471	20.737638
217.050372	-2.989800	3.843400	-11.490000	22.468934	0.000472	20.747072
218.050469	-2.994300	3.841700	-11.502000	22.476085	0.000472	20.734319
219.052324	-3.009700	3.840900	-11.559000	22.514111	0.000473	20.740160
220.049089	-2.988100	3.841300	-11.478000	22.499584	0.000473	20.745051
221.049928	-2.992100	3.841200	-11.492000	22.494302	0.000474	20.720320
222.052763	-2.996800	3.839800	-11.506000	22.501079	0.000473	20.744178
223.050471	-3.006300	3.840700	-11.546000	22.477333	0.000472	20.731301
224.050308	-2.988000	3.840500	-11.474000	22.492159	0.000473	20.730503
225.052005	-3.002300	3.839700	-11.527000	22.501803	0.000475	20.724513
226.051889	-3.005100	3.840400	-11.539000	22.504494	0.000475	20.726260
227.051655	-3.018100	3.839900	-11.588000	22.526572	0.000473	20.743630
228.052749	-3.009900	3.839100	-11.554000	22.521065	0.000475	20.721519
229.050788	-3.016800	3.838900	-11.580000	22.535493	0.000475	20.743556
230.052215	-3.008700	3.839100	-11.550000	22.518923	0.000473	20.744504
231.052452	-2.987600	3.839300	-11.470000	22.526722	0.000477	20.749471
232.051425	-2.986700	3.838000	-11.462000	22.502028	0.000476	20.737067
233.055182	-2.989800	3.839100	-11.478000	22.554306	0.000479	20.727784
234.055692	-3.000400	3.838900	-11.517000	22.539257	0.000477	20.751593
235.055625	-3.010100	3.837700	-11.550000	22.568111	0.000477	20.738766
236.054736	-2.984500	3.838800	-11.456000	22.594223	0.000476	20.726511
237.059511	-2.997500	3.837700	-11.503000	22.559664	0.000477	20.737418
238.055481	-2.967800	3.838100	-11.390000	22.566018	0.000479	20.751368
239.057702	-2.975900	3.836700	-11.416000	22.555503	0.000479	20.747002
240.060383	-2.989400	3.835800	-11.466000	22.575487	0.000478	20.725289
241.055740	-2.998800	3.836300	-11.503000	22.607281	0.000476	20.727262
242.058657	-2.982600	3.837400	-11.444000	22.615802	0.000480	20.731055
243.059575	-2.987400	3.836200	-11.459000	22.624897	0.000480	20.738268
244.058450	-2.998000	3.835900	-11.500000	22.616152	0.000480	20.735673
245.060327	-3.008700	3.836700	-11.543000	22.632596	0.000480	20.730333
246.063158	-3.000200	3.836200	-11.508000	22.646350	0.000481	20.742212
247.058655	-2.995800	3.836000	-11.491000	22.666233	0.000481	20.740790
248.055980	-3.006200	3.835900	-11.530000	22.674180	0.000481	20.737371
249.062702	-3.000000	3.835000	-11.504000	22.682751	0.000483	20.736473
250.060703	-3.013400	3.834200	-11.553000	22.700839	0.000479	20.751272
251.060516	-2.998800	3.835500	-11.501000	22.708088	0.000482	20.750947
252.061018	-2.995500	3.834100	-11.484000	22.725803	0.000482	20.730284
253.058185	-3.004600	3.833600	-11.518000	22.730212	0.000484	20.726167
254.060632	-3.015500	3.833400	-11.558000	22.697002	0.000482	20.744585
255.060864	-3.012100	3.834100	-11.548000	22.698772	0.000484	20.760582
256.058173	-3.017500	3.832700	-11.564000	22.680909	0.000484	20.742689
257.061818	-3.016400	3.834400	-11.566000	22.719376	0.000485	20.740443
258.058927	-2.998700	3.835100	-11.500000	22.711305	0.000484	20.745634
259.058445	-3.006000	3.834100	-11.524000	22.724832	0.000485	20.745434
260.061799	-3.003400	3.833600	-11.512000	22.741599	0.000486	20.747057
261.060818	-2.985100	3.833700	-11.443000	22.723487	0.000486	20.763054
262.061283	-3.002700	3.833200	-11.509000	22.762876	0.000485	20.751774
263.061038	-3.008200	3.832300	-11.526000	22.761805	0.000485	20.737899
264.067811	-3.011900	3.831500	-11.540000	22.794165	0.000486	20.752773
265.060050	-2.978900	3.830700	-11.410000	22.799646	0.000487	20.750203
266.061206	-2.991200	3.831900	-11.461000	22.803533	0.000488	20.756467
267.069114	-2.975900	3.831900	-11.402000	22.795611	0.000488	20.730512
268.060137	-2.979600	3.832300	-11.417000	22.789832	0.000489	20.765028
269.061076	-2.994600	3.830300	-11.470000	22.790007	0.000488	20.744339
270.059213	-2.979100	3.831400	-11.413000	22.800844	0.000488	20.747609
271.057814	-2.999900	3.831800	-11.494000	22.825407	0.000488	20.748982
272.057814	-2.983700	3.830900	-11.429000	22.834822	0.000489	20.762682
