LabVIEW Measurement	
Writer_Version	2
Reader_Version	2
Separator	Tab
Decimal_Separator	.
Multi_Headings	No
X_Columns	One
Time_Pref	Absolute
Operator	admin
Description	Clolumns are: time, Current, Voltage, Power, Battery Temp, and Chamber Temp
Date	2024/08/16
Time	13:07:17.8513970375061035156
***End_of_Header***	
	
Channels	6						
Samples	1	1	1	1	1	1	
Date	2024/09/12	2024/09/12	2024/09/12	2024/09/12	2024/09/12	2024/09/12	
Time	00:24:31.4635729789733886719	00:24:31.4689774513244628906	00:24:31.4769806861877441407	00:24:31.4485735893249511719	00:24:31.4485735893249511719	00:24:31.4485735893249511719	
X_Dimension	Time	Time	Time	Time	Time	Time	
X0	0.0000000000000000E+0	0.0000000000000000E+0	0.0000000000000000E+0	0.0000000000000000E+0	0.0000000000000000E+0	0.0000000000000000E+0	
Delta_X	1.000000	1.000000	1.000000	1.000000	1.000000	1.000000	
***End_of_Header***							
X_Value	Untitled	Untitled 1	Untitled 2	Untitled 3	Untitled 4	Untitled 5	Comment
0.000000	0.029945	4.086500	0.122390	20.771230	0.000456	20.798257
1.007946	-2.985200	3.917300	-11.693000	20.767264	0.000455	20.797610
2.007748	-2.979800	3.912500	-11.658000	20.779044	0.000455	20.789475
3.002469	-2.997800	3.906800	-11.710000	20.767289	0.000454	20.807118
4.003586	-2.995800	3.903600	-11.693000	20.766167	0.000452	20.793194
5.005514	-2.996000	3.901400	-11.688000	20.766637	0.000452	20.784655
6.007054	-3.010000	3.898800	-11.735000	20.790572	0.000450	20.806219
7.002337	-3.004500	3.896400	-11.706000	20.819194	0.000449	20.765140
8.003753	-3.023000	3.894400	-11.772000	20.797107	0.000453	20.796633
9.009761	-2.989100	3.892500	-11.634000	20.808536	0.000450	20.799053
10.003317	-2.980700	3.890500	-11.596000	20.808734	0.000450	20.787871
11.005560	-3.010900	3.888000	-11.706000	20.809785	0.000450	20.807889
12.004278	-3.025200	3.888400	-11.762000	20.834936	0.000448	20.785150
13.003132	-2.990100	3.887700	-11.624000	20.834387	0.000448	20.808784
14.003859	-3.008100	3.886000	-11.689000	20.847787	0.000446	20.805114
15.008987	-3.012100	3.884500	-11.699000	20.856993	0.000451	20.799622
16.009045	-2.999500	3.882400	-11.644000	20.865828	0.000446	20.804665
17.003432	-3.008500	3.881600	-11.677000	20.887065	0.000447	20.805988
18.004695	-2.992700	3.881000	-11.613000	20.903857	0.000446	20.809979
19.004891	-2.995800	3.881300	-11.627000	20.888640	0.000447	20.792864
20.005513	-2.983600	3.881300	-11.580000	20.898341	0.000447	20.818213
21.007211	-2.998300	3.880000	-11.632000	20.889831	0.000445	20.807806
22.011196	-3.005200	3.878900	-11.656000	20.926540	0.000444	20.816069
23.011718	-3.014100	3.878900	-11.691000	20.910573	0.000444	20.794411
24.008929	-3.009900	3.876200	-11.666000	20.951766	0.000443	20.805262
25.009989	-3.001700	3.876800	-11.636000	20.953563	0.000442	20.802319
26.009004	-3.024500	3.875500	-11.721000	20.938718	0.000443	20.825403
27.011727	-3.017200	3.875700	-11.693000	20.934748	0.000443	20.820959
28.009955	-2.990100	3.875400	-11.586000	20.979811	0.000444	20.829044
29.010129	-2.987900	3.875000	-11.577000	20.951564	0.000441	20.807905
30.009212	-3.020200	3.872700	-11.695000	20.979910	0.000442	20.825824
31.010407	-3.028200	3.872200	-11.724000	21.010147	0.000440	20.815764
32.010184	-3.011400	3.873000	-11.662000	21.005732	0.000440	20.810400
33.012188	-3.003600	3.872300	-11.629000	20.999644	0.000443	20.815215
34.011146	-2.984200	3.871800	-11.554000	21.019929	0.000442	20.802789
35.012347	-3.000400	3.871400	-11.615000	21.043933	0.000442	20.821581
36.016866	-2.995100	3.871400	-11.594000	21.012621	0.000440	20.807332
37.011834	-2.973800	3.871300	-11.511000	21.052742	0.000442	20.815220
38.015418	-3.016400	3.870800	-11.675000	21.066164	0.000439	20.809678
39.012125	-3.007700	3.870400	-11.640000	21.059952	0.000440	20.830965
40.024541	-3.002800	3.870400	-11.621000	21.073695	0.000440	20.823375
41.012238	-3.001600	3.869500	-11.613000	21.066638	0.000442	20.797824
42.012670	-3.012200	3.868000	-11.650000	21.091259	0.000439	20.836675
43.014627	-3.011800	3.868000	-11.649000	21.097001	0.000440	20.823927
44.013678	-3.014200	3.868400	-11.659000	21.117409	0.000440	20.827745
45.014649	-3.019200	3.868100	-11.677000	21.113543	0.000439	20.815343
46.015789	-2.980300	3.867700	-11.526000	21.121576	0.000440	20.833336
47.018126	-2.991200	3.868100	-11.570000	21.142804	0.000437	20.839397
48.014990	-3.016800	3.867400	-11.666000	21.137442	0.000437	20.837352
49.016304	-3.006300	3.867000	-11.625000	21.165433	0.000439	20.836428
50.016136	-2.993700	3.866700	-11.574000	21.193996	0.000439	20.838448
51.016763	-2.986700	3.868400	-11.553000	21.188605	0.000438	20.823099
52.018580	-2.986800	3.865900	-11.545000	21.196140	0.000439	20.839170
53.017472	-2.996500	3.867100	-11.587000	21.196288	0.000438	20.834577
54.019269	-2.972000	3.865400	-11.487000	21.198332	0.000436	20.835199
55.019705	-2.989100	3.866000	-11.555000	21.207441	0.000438	20.821552
56.017033	-3.008500	3.864600	-11.625000	21.222130	0.000438	20.859005
57.017532	-3.000600	3.865200	-11.597000	21.226273	0.000436	20.831856
58.017522	-3.025400	3.864300	-11.690000	21.255832	0.000437	20.829184
59.018789	-3.014000	3.864500	-11.647000	21.263345	0.000439	20.832907
60.026245	-2.984900	3.866200	-11.539000	21.260147	0.000438	20.839665
61.026327	-2.982400	3.864700	-11.525000	21.270401	0.000440	20.846603
62.020404	-2.998500	3.863800	-11.585000	21.277684	0.000438	20.849621
63.025401	-2.970500	3.864300	-11.478000	21.271399	0.000438	20.815834
64.019412	-3.013300	3.862300	-11.638000	21.301802	0.000440	20.844826
65.024310	-2.999600	3.863100	-11.587000	21.294993	0.000437	20.828533
66.021060	-2.995300	3.862800	-11.568000	21.302531	0.000440	20.853142
67.026678	-2.994200	3.863200	-11.566000	21.337697	0.000439	20.825263
68.019517	-2.989700	3.864200	-11.552000	21.343088	0.000438	20.845354
69.022950	-3.003200	3.863500	-11.602000	21.343137	0.000438	20.838292
70.029925	-3.001400	3.862800	-11.593000	21.338142	0.000439	20.848467
71.021075	-3.010500	3.862200	-11.625000	21.348421	0.000439	20.849267
72.028528	-3.009400	3.861800	-11.621000	21.349941	0.000439	20.849840
73.032298	-3.022900	3.861900	-11.673000	21.371668	0.000439	20.829378
74.023995	-2.993900	3.863000	-11.564000	21.399904	0.000439	20.847197
75.021575	-2.973400	3.862400	-11.484000	21.389800	0.000438	20.859372
76.027470	-2.989000	3.862100	-11.543000	21.407734	0.000438	20.846022
77.023328	-3.019200	3.860700	-11.655000	21.421424	0.000440	20.848339
78.024070	-3.007600	3.861000	-11.611000	21.422771	0.000439	20.842101
79.026586	-3.005000	3.860100	-11.598000	21.419030	0.000440	20.862064
80.023125	-3.018100	3.860200	-11.650000	21.453220	0.000439	20.862134
81.026205	-3.001200	3.860200	-11.585000	21.444892	0.000439	20.851431
82.026563	-2.982900	3.861300	-11.516000	21.460905	0.000438	20.860341
83.026145	-3.013300	3.859200	-11.628000	21.468433	0.000440	20.847960
84.026363	-2.989400	3.861600	-11.543000	21.475517	0.000437	20.855995
85.025960	-2.989400	3.859400	-11.537000	21.486540	0.000440	20.862283
86.027525	-3.002300	3.859300	-11.585000	21.503624	0.000441	20.861359
87.032036	-3.003100	3.861000	-11.593000	21.514868	0.000440	20.861705
88.029701	-3.011300	3.859300	-11.620000	21.510303	0.000438	20.856189
89.029681	-2.992300	3.859600	-11.548000	21.537086	0.000441	20.887728
90.029572	-2.989200	3.859600	-11.537000	21.557338	0.000440	20.862476
91.029443	-2.987100	3.858600	-11.525000	21.540329	0.000440	20.860155
92.031172	-3.007500	3.859500	-11.607000	21.558957	0.000440	20.859829
93.034609	-2.984300	3.860000	-11.517000	21.573568	0.000441	20.873975
94.029649	-2.990800	3.859400	-11.542000	21.590004	0.000441	20.892791
95.032122	-2.991900	3.857300	-11.540000	21.579798	0.000441	20.878786
96.031612	-2.990400	3.857600	-11.535000	21.600873	0.000441	20.870953
97.032992	-3.001900	3.858100	-11.581000	21.613991	0.000441	20.872227
98.030396	-2.996500	3.857500	-11.559000	21.599876	0.000441	20.886549
99.029641	-2.986300	3.857500	-11.519000	21.629149	0.000440	20.885498
100.039024	-2.997900	3.857100	-11.562000	21.622739	0.000442	20.871971
101.037718	-2.990000	3.857900	-11.533000	21.638498	0.000441	20.868302
102.031930	-3.012000	3.856600	-11.615000	21.650145	0.000442	20.879957
103.033538	-3.012300	3.856700	-11.615000	21.648316	0.000443	20.876230
104.030885	-3.007100	3.857000	-11.596000	21.677222	0.000442	20.884768
105.031214	-3.003200	3.856800	-11.581000	21.694801	0.000441	20.881025
106.037441	-3.029800	3.854800	-11.678000	21.676023	0.000442	20.882620
107.032140	-3.006400	3.857000	-11.595000	21.704496	0.000442	20.886459
108.034873	-3.018400	3.854300	-11.633000	21.705299	0.000444	20.886314
109.032064	-3.013900	3.855800	-11.620000	21.705468	0.000443	20.879372
110.032953	-3.005200	3.856000	-11.587000	21.714568	0.000444	20.884212
111.048472	-2.988700	3.855500	-11.522000	21.727064	0.000443	20.891501
112.034758	-2.974500	3.856900	-11.472000	21.718832	0.000445	20.882315
113.039626	-2.978000	3.855000	-11.479000	21.747357	0.000444	20.889526
114.037599	-2.999200	3.854500	-11.559000	21.750966	0.000445	20.892663
115.037145	-3.006000	3.855600	-11.589000	21.757430	0.000445	20.884909
116.034367	-3.019000	3.855400	-11.639000	21.766151	0.000445	20.887947
117.035110	-3.033800	3.853600	-11.689000	21.767375	0.000445	20.889172
118.036212	-2.984500	3.855100	-11.504000	21.772557	0.000445	20.885824
119.037449	-3.008900	3.853500	-11.594000	21.792756	0.000447	20.838238
120.040005	-3.008400	3.853700	-11.593000	21.813374	0.000446	20.885898
121.041144	-2.990800	3.855000	-11.529000	21.818313	0.000446	20.868558
122.036682	-3.007300	3.853300	-11.586000	21.837237	0.000445	20.883705
123.039338	-2.998300	3.853200	-11.552000	21.818560	0.000448	20.875917
124.045672	-2.963300	3.854200	-11.420000	21.829575	0.000447	20.877933
125.041456	-2.984100	3.853300	-11.497000	21.835581	0.000448	20.881573
126.038848	-2.984500	3.853500	-11.499000	21.825761	0.000448	20.873167
127.043635	-3.030400	3.851200	-11.669000	21.839021	0.000448	20.857991
128.039259	-2.990300	3.852400	-11.520000	21.858691	0.000451	20.887160
129.043897	-2.972900	3.853600	-11.456000	21.879534	0.000448	20.872936
130.040432	-2.995600	3.853200	-11.541000	21.890705	0.000450	20.851877
131.044961	-3.009100	3.852700	-11.593000	21.891179	0.000448	20.858040
132.040713	-2.988400	3.852500	-11.512000	21.904566	0.000450	20.864802
133.040008	-2.996500	3.851300	-11.540000	21.890104	0.000451	20.852697
134.043228	-3.002700	3.851100	-11.563000	21.910593	0.000451	20.870359
135.045315	-3.001300	3.852900	-11.562000	21.914609	0.000452	20.874379
136.040837	-3.001300	3.850900	-11.557000	21.928947	0.000452	20.841318
137.040720	-3.006600	3.851100	-11.578000	21.937445	0.000451	20.854565
138.044518	-3.002600	3.850800	-11.561000	21.960754	0.000452	20.850871
139.046244	-2.984300	3.850500	-11.490000	21.963497	0.000452	20.850772
140.046682	-2.981600	3.851800	-11.484000	21.968184	0.000451	20.849300
141.045645	-2.999900	3.851300	-11.553000	21.953051	0.000452	20.845532
142.044992	-2.988300	3.850300	-11.505000	21.993111	0.000453	20.836795
143.047297	-2.988300	3.849500	-11.503000	22.003281	0.000453	20.843656
144.046502	-3.003000	3.849200	-11.559000	21.979050	0.000453	20.855909
145.056115	-3.012500	3.849400	-11.596000	21.993779	0.000455	20.851687
146.046402	-3.018000	3.848200	-11.612000	22.003948	0.000454	20.862815
147.045533	-2.988100	3.848600	-11.500000	22.010579	0.000456	20.848117
148.044934	-2.994500	3.849100	-11.524000	22.021621	0.000455	20.845420
149.046448	-2.994600	3.848900	-11.525000	22.035283	0.000456	20.852458
150.046777	-2.982600	3.849000	-11.478000	22.022013	0.000454	20.837278
151.049382	-2.990500	3.849300	-11.510000	22.037548	0.000455	20.852829
152.049564	-3.003300	3.848200	-11.557000	22.059060	0.000454	20.834062
153.049395	-2.997100	3.848100	-11.532000	22.068306	0.000456	20.849956
154.049094	-3.004300	3.849300	-11.563000	22.097271	0.000456	20.858090
155.051105	-3.013600	3.847900	-11.595000	22.085427	0.000454	20.843388
156.050226	-3.013200	3.846300	-11.588000	22.128678	0.000455	20.835006
157.048813	-2.994000	3.847700	-11.519000	22.089862	0.000457	20.840716
158.049043	-3.008700	3.848400	-11.577000	22.092778	0.000455	20.852170
159.048195	-2.999300	3.846600	-11.536000	22.125984	0.000458	20.844637
160.049845	-3.006200	3.847300	-11.565000	22.116982	0.000455	20.842737
161.049829	-2.996300	3.847500	-11.526000	22.122612	0.000457	20.844106
162.050084	-3.019100	3.846800	-11.612000	22.134530	0.000457	20.833279
163.049160	-3.005000	3.846800	-11.560000	22.155887	0.000457	20.820048
164.049837	-3.011200	3.846300	-11.581000	22.176725	0.000458	20.835695
165.050873	-3.007500	3.846000	-11.566000	22.164787	0.000457	20.825165
166.050196	-3.010900	3.845600	-11.578000	22.187020	0.000456	20.833675
167.050198	-3.020200	3.844900	-11.611000	22.207833	0.000457	20.833650
168.050705	-2.987400	3.846500	-11.490000	22.193078	0.000458	20.806075
169.050329	-3.023400	3.844900	-11.623000	22.202002	0.000459	20.828760
170.054830	-3.012900	3.844600	-11.582000	22.214685	0.000457	20.844304
171.065914	-2.993000	3.846400	-11.511000	22.223984	0.000461	20.824217
172.054484	-2.989900	3.846400	-11.500000	22.241930	0.000459	20.822745
173.051574	-2.999300	3.845100	-11.531000	22.235671	0.000460	20.829280
174.052486	-2.996000	3.844300	-11.517000	22.219026	0.000458	20.830158
175.056258	-2.998300	3.845600	-11.529000	22.234307	0.000460	20.831234
176.054007	-2.995400	3.843900	-11.514000	22.243153	0.000459	20.822547
177.050651	-2.999300	3.844300	-11.529000	22.236198	0.000461	20.825540
178.056592	-3.010600	3.843600	-11.570000	22.236523	0.000460	20.825392
179.055233	-2.991000	3.843000	-11.493000	22.273662	0.000460	20.819904
180.053266	-2.997100	3.844300	-11.521000	22.271467	0.000461	20.815336
181.053954	-2.980300	3.842700	-11.451000	22.267337	0.000462	20.833959
182.054444	-3.008700	3.842700	-11.561000	22.301152	0.000464	20.817084
183.056623	-3.008600	3.843000	-11.561000	22.285278	0.000465	20.820155
184.053713	-2.996500	3.843700	-11.517000	22.307583	0.000462	20.817360
185.057648	-2.979400	3.844400	-11.453000	22.309379	0.000465	20.827692
186.057495	-2.988600	3.843900	-11.487000	22.303503	0.000462	20.809007
187.055861	-2.984700	3.842700	-11.468000	22.300484	0.000463	20.823528
188.054202	-2.993900	3.841000	-11.499000	22.305492	0.000461	20.804360
189.057220	-2.996000	3.841300	-11.508000	22.335999	0.000465	20.817838
190.056970	-3.005900	3.842100	-11.549000	22.356986	0.000465	20.812775
191.057232	-3.009800	3.841600	-11.561000	22.366732	0.000465	20.812103
192.056314	-2.979300	3.841900	-11.446000	22.379537	0.000464	20.832986
193.056322	-3.007900	3.840400	-11.551000	22.361148	0.000464	20.839228
194.057694	-3.003200	3.840000	-11.531000	22.364537	0.000466	20.807060
195.055798	-3.020000	3.839700	-11.594000	22.360704	0.000464	20.807015
196.056349	-2.987500	3.840800	-11.474000	22.349562	0.000467	20.818143
197.060045	-3.015000	3.840500	-11.578000	22.363594	0.000468	20.799004
198.059411	-2.996800	3.841000	-11.510000	22.387018	0.000468	20.807287
199.063441	-2.975400	3.839600	-11.424000	22.412640	0.000468	20.802599
200.059569	-2.993000	3.839700	-11.492000	22.394446	0.000467	20.803346
201.058580	-3.009100	3.840000	-11.554000	22.436713	0.000468	20.814379
202.058635	-2.986000	3.840100	-11.466000	22.449645	0.000469	20.808837
203.060221	-3.025700	3.838600	-11.613000	22.471524	0.000467	20.802772
204.059276	-3.033200	3.838000	-11.641000	22.454833	0.000469	20.801704
205.064936	-2.980500	3.839700	-11.444000	22.464549	0.000468	20.798633
206.062249	-2.998100	3.839000	-11.508000	22.468539	0.000469	20.788878
207.064172	-3.020400	3.838100	-11.591000	22.454639	0.000469	20.801985
208.065066	-3.011800	3.838800	-11.561000	22.480676	0.000469	20.795343
209.063072	-3.013300	3.837500	-11.563000	22.469564	0.000470	20.806500
210.066854	-2.997000	3.838100	-11.502000	22.478885	0.000471	20.782169
211.064449	-3.008800	3.837200	-11.544000	22.458929	0.000471	20.795375
212.065193	-3.000700	3.837700	-11.515000	22.478341	0.000470	20.799169
213.066521	-3.015200	3.836200	-11.566000	22.490202	0.000471	20.791607
214.064703	-3.013800	3.836900	-11.563000	22.522722	0.000473	20.788614
215.072174	-3.024200	3.836800	-11.602000	22.538868	0.000470	20.786292
216.064764	-3.001800	3.836500	-11.516000	22.520779	0.000472	20.797099
217.067615	-3.007400	3.835700	-11.534000	22.550185	0.000474	20.775341
218.066416	-2.993700	3.835600	-11.481000	22.570444	0.000476	20.791838
219.064893	-3.004200	3.834500	-11.519000	22.575425	0.000473	20.803939
220.067507	-3.005500	3.836300	-11.529000	22.586816	0.000474	20.802071
221.070518	-3.003500	3.834400	-11.515000	22.589808	0.000475	20.787525
222.073123	-3.020400	3.834600	-11.581000	22.600845	0.000474	20.786725
223.067615	-2.993300	3.836100	-11.482000	22.612832	0.000473	20.782610
224.068656	-3.002300	3.834700	-11.511000	22.606826	0.000476	20.787974
225.073327	-2.985600	3.835700	-11.450000	22.592505	0.000475	20.787855
226.069415	-2.988100	3.834900	-11.458000	22.602072	0.000478	20.801704
227.067313	-3.003700	3.833400	-11.513000	22.616978	0.000477	20.791978
228.067729	-3.022500	3.833400	-11.586000	22.622008	0.000477	20.784214
229.067790	-3.009300	3.832700	-11.533000	22.626343	0.000477	20.779547
230.066914	-3.019300	3.832500	-11.570000	22.629463	0.000477	20.778404
231.078655	-3.014800	3.834300	-11.559000	22.672936	0.000478	20.797767
232.071464	-3.002900	3.833600	-11.511000	22.670697	0.000478	20.789834
233.070009	-3.010400	3.834000	-11.541000	22.659682	0.000477	20.776430
234.071775	-3.000900	3.833200	-11.503000	22.670824	0.000478	20.765779
235.072909	-3.012200	3.831600	-11.540000	22.683062	0.000476	20.811228
236.071285	-2.993000	3.832900	-11.471000	22.702244	0.000479	20.803415
237.073929	-3.006000	3.832700	-11.520000	22.684532	0.000478	20.792786
238.072569	-2.997100	3.831900	-11.484000	22.663629	0.000479	20.787022
239.072117	-3.019600	3.831900	-11.569000	22.635576	0.000477	20.784527
240.076638	-3.017500	3.831100	-11.560000	22.645068	0.000478	20.785026
241.075233	-3.008800	3.831800	-11.527000	22.675715	0.000481	20.785377
242.077803	-3.002600	3.832500	-11.507000	22.689945	0.000482	20.789199
243.073915	-3.005200	3.830100	-11.509000	22.725426	0.000480	20.772583
244.075851	-2.999100	3.830900	-11.489000	22.739528	0.000482	20.784812
245.078557	-3.006600	3.831000	-11.517000	22.765632	0.000481	20.788201
246.075602	-2.978400	3.830800	-11.409000	22.783968	0.000482	20.780491
247.076767	-3.007100	3.829800	-11.516000	22.784944	0.000481	20.779097
248.076342	-2.995800	3.830100	-11.472000	22.778593	0.000482	20.760881
249.074444	-3.009500	3.828900	-11.522000	22.764541	0.000483	20.789479
250.075950	-3.009100	3.829200	-11.521000	22.754654	0.000485	20.770092
251.077591	-2.982300	3.830300	-11.423000	22.808318	0.000483	20.771218
252.076185	-3.011500	3.828600	-11.528000	22.820871	0.000484	20.782845
253.083848	-2.988000	3.829300	-11.441000	22.794513	0.000486	20.773984
254.075749	-3.017400	3.828000	-11.550000	22.828547	0.000484	20.752127
255.081172	-3.005300	3.827300	-11.501000	22.836367	0.000485	20.772290
256.077619	-2.979800	3.829300	-11.409000	22.796382	0.000487	20.773486
257.078260	-2.999300	3.828600	-11.482000	22.826629	0.000488	20.760164
258.081013	-2.998100	3.828800	-11.478000	22.828320	0.000487	20.763755
259.079630	-2.983500	3.829500	-11.424000	22.848574	0.000487	20.777407
260.078966	-3.020000	3.827900	-11.559000	22.851138	0.000487	20.763854
261.079799	-2.993500	3.828200	-11.458000	22.827999	0.000488	20.777184
262.082964	-2.998800	3.826100	-11.473000	22.847104	0.000488	20.745588
263.086387	-2.989300	3.826500	-11.438000	22.867308	0.000488	20.765829
264.084838	-2.993500	3.827100	-11.456000	22.857418	0.000489	20.756869
265.081023	-2.995400	3.827400	-11.464000	22.901508	0.000487	20.787290
266.081890	-2.991600	3.826600	-11.446000	22.897496	0.000489	20.771416
267.083372	-3.010300	3.826000	-11.516000	22.876823	0.000490	20.750231
268.081719	-3.001500	3.826000	-11.483000	22.854060	0.000487	20.763936
269.083822	-2.988800	3.826500	-11.436000	22.897948	0.000490	20.745790
270.083006	-2.998900	3.823900	-11.467000	22.896829	0.000490	20.766954
271.084526	-3.003300	3.825600	-11.489000	22.871243	0.000490	20.763606
272.085087	-2.989500	3.825100	-11.435000	22.909282	0.000490	20.759042
