LabVIEW Measurement	
Writer_Version	2
Reader_Version	2
Separator	Tab
Decimal_Separator	.
Multi_Headings	No
X_Columns	One
Time_Pref	Absolute
Operator	admin
Description	Clolumns are: time, Current, Voltage, Power, Battery Temp, and Chamber Temp
Date	2024/08/16
Time	13:07:17.8513970375061035156
***End_of_Header***	
	
Channels	6						
Samples	1	1	1	1	1	1	
Date	2024/09/17	2024/09/17	2024/09/17	2024/09/17	2024/09/17	2024/09/17	
Time	14:09:07.2924165725708007813	14:09:07.2982320785522460938	14:09:07.3041582107543945312	14:09:07.2767806053161621094	14:09:07.2767806053161621094	14:09:07.2767806053161621094	
X_Dimension	Time	Time	Time	Time	Time	Time	
X0	0.0000000000000000E+0	0.0000000000000000E+0	0.0000000000000000E+0	0.0000000000000000E+0	0.0000000000000000E+0	0.0000000000000000E+0	
Delta_X	1.000000	1.000000	1.000000	1.000000	1.000000	1.000000	
***End_of_Header***							
X_Value	Untitled	Untitled 1	Untitled 2	Untitled 3	Untitled 4	Untitled 5	Comment
0.000000	0.032109	4.090800	0.131350	20.873820	0.000484	20.843002
1.001383	-2.991500	3.918100	-11.720000	20.889761	0.000483	20.843771
2.007270	-3.000700	3.911000	-11.735000	20.881051	0.000483	20.845017
3.001120	-3.011000	3.906400	-11.761000	20.879700	0.000479	20.852200
4.013297	-3.010400	3.903100	-11.748000	20.889808	0.000481	20.847137
5.016248	-3.016200	3.899500	-11.761000	20.895343	0.000479	20.833706
6.018032	-2.973500	3.898600	-11.591000	20.918971	0.000480	20.837896
7.002093	-3.014500	3.893900	-11.736000	20.901377	0.000478	20.835473
8.005076	-2.993100	3.892700	-11.651000	20.933836	0.000478	20.822892
9.011776	-2.977800	3.891400	-11.587000	20.913673	0.000479	20.844926
10.005804	-2.974400	3.890500	-11.571000	20.920779	0.000477	20.846343
11.010614	-3.008300	3.888200	-11.696000	20.937844	0.000476	20.856771
12.020830	-3.008900	3.885700	-11.691000	20.942034	0.000478	20.851004
13.007535	-3.028800	3.884500	-11.763000	20.949914	0.000475	20.845609
14.015437	-2.986100	3.883700	-11.596000	20.972094	0.000475	20.845981
15.028031	-2.990400	3.883600	-11.613000	20.960611	0.000474	20.837816
16.007932	-3.014700	3.881500	-11.701000	21.008190	0.000473	20.837513
17.006364	-3.014000	3.879700	-11.692000	20.968541	0.000474	20.830101
18.009059	-2.962100	3.881800	-11.497000	20.983337	0.000473	20.837786
19.013331	-3.014600	3.878800	-11.692000	21.018088	0.000474	20.836981
20.017784	-2.995700	3.878200	-11.617000	21.019557	0.000473	20.839873
21.012082	-2.979700	3.877300	-11.552000	21.001738	0.000473	20.850974
22.006024	-2.987700	3.877400	-11.583000	21.016456	0.000472	20.836772
23.007984	-2.993700	3.876000	-11.603000	21.039580	0.000471	20.846150
24.009697	-3.000600	3.877000	-11.631000	21.038756	0.000471	20.835369
25.007627	-2.987400	3.875600	-11.576000	21.055941	0.000469	20.835488
26.006672	-3.014600	3.874800	-11.680000	21.047055	0.000471	20.855523
27.011157	-3.007100	3.874700	-11.651000	21.078488	0.000469	20.840971
28.006186	-3.012400	3.873100	-11.666000	21.077262	0.000471	20.846382
29.006819	-3.003000	3.872500	-11.629000	21.095446	0.000469	20.835174
30.012830	-2.999400	3.872300	-11.613000	21.103103	0.000469	20.846151
31.007115	-3.002900	3.871100	-11.624000	21.095664	0.000469	20.846771
32.021732	-2.995800	3.871100	-11.596000	21.113923	0.000468	20.851284
33.020775	-2.998600	3.871500	-11.608000	21.125570	0.000470	20.838278
34.012799	-3.000600	3.870500	-11.613000	21.139512	0.000468	20.825198
35.016532	-3.003000	3.870100	-11.621000	21.161612	0.000468	20.857261
36.009174	-2.996100	3.869600	-11.592000	21.160361	0.000468	20.849372
37.011151	-3.011700	3.869000	-11.651000	21.182063	0.000467	20.826985
38.015749	-3.011000	3.868300	-11.646000	21.197176	0.000468	20.828827
39.009136	-2.999700	3.868000	-11.601000	21.189986	0.000468	20.829696
40.018961	-2.989200	3.867300	-11.559000	21.205275	0.000468	20.836929
41.016046	-3.005100	3.867200	-11.620000	21.213576	0.000468	20.849026
42.012728	-3.013300	3.867500	-11.653000	21.186683	0.000470	20.837771
43.013067	-2.990300	3.867900	-11.565000	21.223200	0.000466	20.832575
44.018209	-3.013100	3.867100	-11.651000	21.242925	0.000468	20.848040
45.023739	-2.996000	3.866600	-11.583000	21.234016	0.000467	20.840076
46.017569	-3.010000	3.865500	-11.634000	21.267542	0.000465	20.850381
47.011242	-2.971400	3.866200	-11.487000	21.269110	0.000467	20.831087
48.020797	-2.974300	3.867200	-11.502000	21.273296	0.000465	20.839542
49.021029	-3.007200	3.865300	-11.623000	21.286038	0.000464	20.824789
50.013219	-3.006000	3.863500	-11.612000	21.284162	0.000464	20.836663
51.032363	-3.007900	3.865400	-11.625000	21.292790	0.000466	20.849561
52.025918	-3.025300	3.864800	-11.691000	21.315763	0.000464	20.818491
53.012523	-3.015000	3.864800	-11.651000	21.308274	0.000465	20.841344
54.015779	-3.007600	3.862900	-11.617000	21.313234	0.000463	20.842514
55.013395	-3.012800	3.862800	-11.637000	21.346608	0.000465	20.837023
56.015390	-2.983400	3.863200	-11.524000	21.357032	0.000462	20.863097
57.014928	-3.000100	3.862400	-11.587000	21.364935	0.000465	20.838763
58.022340	-3.003700	3.863300	-11.603000	21.365632	0.000465	20.819072
59.018275	-3.020000	3.861600	-11.660000	21.375131	0.000464	20.845170
60.028325	-3.007800	3.862500	-11.617000	21.392566	0.000463	20.836536
61.017017	-3.014700	3.861600	-11.640000	21.384929	0.000464	20.831266
62.020349	-2.988000	3.862100	-11.540000	21.388244	0.000465	20.814195
63.016452	-2.994600	3.861900	-11.564000	21.415979	0.000463	20.855693
64.017162	-3.003900	3.860900	-11.597000	21.429044	0.000466	20.832257
65.016228	-3.016500	3.860800	-11.646000	21.417792	0.000464	20.822896
66.016511	-3.020200	3.861000	-11.660000	21.439937	0.000464	20.832724
67.033001	-2.980500	3.860900	-11.506000	21.449288	0.000465	20.845399
68.018801	-2.987900	3.860600	-11.534000	21.450583	0.000464	20.832945
69.019198	-2.977000	3.861200	-11.492000	21.467139	0.000464	20.845243
70.021692	-3.005400	3.859200	-11.598000	21.475543	0.000463	20.852702
71.021294	-3.017400	3.860000	-11.647000	21.480354	0.000464	20.838550
72.021612	-3.015000	3.859700	-11.636000	21.491151	0.000466	20.829914
73.023103	-2.985700	3.859800	-11.523000	21.498378	0.000465	20.836671
74.032047	-2.997400	3.859300	-11.567000	21.532119	0.000464	20.828708
75.024943	-2.988400	3.859900	-11.534000	21.520697	0.000462	20.839089
76.024267	-3.016200	3.857400	-11.634000	21.537327	0.000464	20.824910
77.024747	-3.016800	3.857700	-11.638000	21.551468	0.000464	20.830525
78.026347	-3.002400	3.858600	-11.585000	21.536575	0.000463	20.817994
79.023935	-3.009200	3.857200	-11.606000	21.546998	0.000463	20.836483
80.027587	-2.990500	3.859200	-11.541000	21.544279	0.000463	20.828547
81.026676	-2.989100	3.858400	-11.532000	21.580261	0.000462	20.835630
82.026684	-3.002400	3.858000	-11.582000	21.576671	0.000465	20.825874
83.026768	-3.011700	3.858200	-11.619000	21.605374	0.000463	20.825673
84.030267	-3.003400	3.857800	-11.585000	21.590579	0.000462	20.842636
85.025232	-3.021000	3.857400	-11.652000	21.618210	0.000462	20.861276
86.028071	-2.984800	3.857200	-11.512000	21.626016	0.000462	20.843959
87.028699	-3.005200	3.857100	-11.591000	21.633096	0.000461	20.839664
88.029574	-3.004900	3.856300	-11.587000	21.634317	0.000464	20.830929
89.029140	-2.984100	3.858700	-11.514000	21.644416	0.000465	20.831078
90.030660	-3.012000	3.855600	-11.613000	21.651545	0.000461	20.839635
91.031692	-2.996800	3.858000	-11.561000	21.652567	0.000465	20.816951
92.028651	-2.988700	3.856600	-11.525000	21.666754	0.000463	20.843475
93.029215	-3.008400	3.856500	-11.601000	21.654408	0.000463	20.846293
94.033746	-3.008400	3.854700	-11.596000	21.688097	0.000463	20.834963
95.028769	-3.002000	3.856200	-11.576000	21.697496	0.000462	20.805490
96.037724	-2.996200	3.855300	-11.550000	21.697296	0.000461	20.820935
97.031903	-3.004200	3.855600	-11.582000	21.707247	0.000465	20.801972
98.029459	-2.998800	3.855500	-11.561000	21.737467	0.000463	20.826052
99.029185	-2.975700	3.854600	-11.470000	21.755542	0.000463	20.819960
100.031229	-3.019000	3.854900	-11.637000	21.750455	0.000464	20.824352
101.031066	-3.000700	3.854800	-11.566000	21.756961	0.000465	20.807156
102.033005	-2.995000	3.854700	-11.543000	21.750629	0.000464	20.807930
103.029510	-3.007500	3.854400	-11.591000	21.772174	0.000463	20.815742
104.029954	-2.992200	3.854500	-11.532000	21.749555	0.000467	20.826295
105.029378	-3.001400	3.855600	-11.570000	21.785533	0.000464	20.817734
106.030540	-3.004400	3.854300	-11.579000	21.788101	0.000467	20.830734
107.035979	-2.969300	3.854100	-11.443000	21.799346	0.000464	20.826817
108.030166	-3.000200	3.852900	-11.558000	21.801440	0.000465	20.824645
109.030670	-2.999000	3.853000	-11.555000	21.814104	0.000465	20.816932
110.030222	-2.992900	3.853400	-11.531000	21.827391	0.000465	20.814110
111.043136	-3.015500	3.853000	-11.618000	21.820906	0.000468	20.800506
112.030494	-2.977800	3.854600	-11.477000	21.843022	0.000468	20.802254
113.034671	-2.991600	3.852900	-11.526000	21.867628	0.000467	20.812184
114.030515	-3.000000	3.852900	-11.557000	21.866629	0.000467	20.809287
115.038678	-2.984900	3.852600	-11.499000	21.851942	0.000468	20.787948
116.040911	-3.014000	3.851900	-11.609000	21.843839	0.000465	20.828201
117.038492	-3.012300	3.852600	-11.605000	21.874901	0.000467	20.816144
118.032527	-3.033500	3.850300	-11.679000	21.893797	0.000471	20.813247
119.029734	-2.994700	3.852300	-11.535000	21.887339	0.000468	20.802990
120.032092	-3.027400	3.849900	-11.653000	21.912642	0.000468	20.813618
121.032223	-2.991500	3.850800	-11.519000	21.895016	0.000469	20.827743
122.030863	-3.010700	3.850800	-11.593000	21.915105	0.000469	20.812764
123.031168	-2.962600	3.852900	-11.413000	21.921937	0.000470	20.824345
124.040491	-2.986500	3.851000	-11.499000	21.924777	0.000471	20.826239
125.031282	-3.008200	3.850600	-11.582000	21.955215	0.000470	20.806447
126.042334	-3.012000	3.851400	-11.599000	21.973636	0.000471	20.800231
127.032695	-2.997700	3.851500	-11.544000	21.982956	0.000471	20.811932
128.034680	-3.028300	3.848500	-11.653000	21.995269	0.000470	20.788696
129.035509	-3.020200	3.849100	-11.623000	21.985244	0.000471	20.811850
130.036166	-2.995900	3.849300	-11.531000	22.007479	0.000471	20.800444
131.034462	-2.987300	3.851000	-11.504000	22.004686	0.000471	20.818511
132.040876	-3.009500	3.848800	-11.583000	22.021136	0.000474	20.798468
133.039365	-3.002900	3.849100	-11.558000	22.028439	0.000471	20.806728
134.035246	-2.986900	3.849900	-11.499000	22.043542	0.000473	20.801458
135.034696	-2.995300	3.849500	-11.529000	22.011508	0.000470	20.827236
136.036382	-3.010000	3.849400	-11.586000	22.038054	0.000474	20.822043
137.052081	-2.974100	3.848500	-11.445000	22.040096	0.000474	20.833095
138.040011	-2.998400	3.848700	-11.539000	22.058288	0.000473	20.812427
139.037935	-2.978500	3.848900	-11.463000	22.049240	0.000474	20.812852
140.041751	-3.023000	3.846100	-11.625000	22.081417	0.000473	20.814245
141.054323	-3.008700	3.848000	-11.577000	22.088346	0.000476	20.809802
142.039147	-3.021600	3.845900	-11.620000	22.099411	0.000474	20.829888
143.044027	-3.017100	3.846900	-11.605000	22.117354	0.000476	20.790954
144.040192	-3.024600	3.846600	-11.634000	22.118922	0.000475	20.802006
145.042310	-3.017100	3.846600	-11.605000	22.096809	0.000474	20.815903
146.040842	-3.013100	3.846500	-11.589000	22.107727	0.000477	20.812135
147.040708	-2.982200	3.846000	-11.469000	22.137636	0.000476	20.789448
148.044683	-2.990500	3.846500	-11.501000	22.141843	0.000475	20.799349
149.056474	-2.986400	3.846000	-11.485000	22.139225	0.000477	20.803366
150.044367	-3.005500	3.846400	-11.560000	22.158415	0.000475	20.804087
151.044454	-3.004600	3.846500	-11.556000	22.166637	0.000476	20.818483
152.042697	-2.991800	3.846300	-11.507000	22.181192	0.000477	20.799865
153.041852	-3.013600	3.846100	-11.589000	22.178523	0.000478	20.790080
154.043903	-3.010400	3.845200	-11.573000	22.185399	0.000476	20.815456
155.041930	-2.995700	3.846300	-11.521000	22.178516	0.000477	20.792444
156.045696	-2.988500	3.846600	-11.494000	22.218394	0.000477	20.802025
157.042971	-3.005300	3.844800	-11.554000	22.229907	0.000477	20.787473
158.042056	-3.010000	3.844400	-11.571000	22.215499	0.000477	20.809557
159.043570	-3.008600	3.844700	-11.566000	22.225167	0.000479	20.809754
160.043863	-2.981200	3.845000	-11.462000	22.227558	0.000477	20.782750
161.045792	-3.012400	3.844700	-11.580000	22.243607	0.000478	20.813044
162.044412	-3.019600	3.843600	-11.605000	22.259507	0.000477	20.799567
163.044784	-3.016800	3.844000	-11.595000	22.280267	0.000475	20.822250
164.057897	-3.005800	3.844200	-11.554000	22.288114	0.000478	20.807349
165.045312	-3.019900	3.842300	-11.602000	22.281884	0.000480	20.800162
166.045501	-2.983500	3.844000	-11.467000	22.265707	0.000480	20.794395
167.056354	-3.006100	3.844200	-11.555000	22.287639	0.000480	20.799286
168.045354	-2.973000	3.843800	-11.426000	22.292622	0.000480	20.817078
169.051099	-3.011100	3.842100	-11.567000	22.292871	0.000481	20.808792
170.055995	-2.990200	3.843100	-11.491000	22.301494	0.000480	20.816478
171.052859	-3.010700	3.842900	-11.570000	22.328282	0.000480	20.799206
172.051091	-2.995400	3.843300	-11.511000	22.327511	0.000481	20.814554
173.048529	-3.004700	3.842800	-11.545000	22.328756	0.000479	20.813904
174.048369	-2.997900	3.842600	-11.520000	22.335160	0.000480	20.822213
175.047706	-2.997100	3.841800	-11.512000	22.350438	0.000481	20.790571
176.051817	-3.001600	3.842800	-11.534000	22.353926	0.000481	20.817772
177.049304	-2.986000	3.842500	-11.472000	22.373539	0.000483	20.799953
178.052923	-3.011700	3.842300	-11.571000	22.369773	0.000482	20.802347
179.051029	-2.984900	3.842400	-11.468000	22.374808	0.000482	20.819242
180.049634	-3.008400	3.840800	-11.553000	22.411466	0.000484	20.798578
181.054313	-3.007800	3.840600	-11.551000	22.421086	0.000482	20.800152
182.055959	-3.001400	3.840500	-11.526000	22.427891	0.000482	20.791319
183.053459	-2.986100	3.840300	-11.466000	22.425995	0.000482	20.784679
184.050891	-2.987900	3.841300	-11.477000	22.461479	0.000482	20.806463
185.051812	-2.996600	3.840600	-11.508000	22.485675	0.000484	20.821211
186.051093	-2.992600	3.839400	-11.488000	22.465816	0.000484	20.807488
187.052583	-2.972100	3.840700	-11.414000	22.454652	0.000485	20.786824
188.052446	-3.004400	3.838400	-11.531000	22.454451	0.000483	20.799900
189.053527	-2.991800	3.839300	-11.486000	22.464919	0.000486	20.794261
190.058526	-2.999100	3.839500	-11.514000	22.491534	0.000483	20.792466
191.053541	-3.007300	3.838800	-11.542000	22.488319	0.000485	20.797781
192.054335	-3.022400	3.838300	-11.600000	22.513534	0.000483	20.786998
193.054019	-3.041900	3.837900	-11.672000	22.514906	0.000485	20.790743
194.056090	-2.993600	3.839000	-11.492000	22.535638	0.000486	20.801075
195.054905	-3.006200	3.836400	-11.531000	22.526145	0.000486	20.789197
196.059040	-2.987500	3.838300	-11.466000	22.527317	0.000484	20.796061
197.055358	-2.983000	3.838600	-11.449000	22.538332	0.000487	20.781014
198.057689	-2.999500	3.837400	-11.509000	22.535516	0.000485	20.779616
199.057340	-2.993200	3.838200	-11.488000	22.550193	0.000485	20.800005
200.060723	-2.996000	3.836700	-11.494000	22.539056	0.000489	20.811136
201.057367	-3.006500	3.837300	-11.535000	22.562330	0.000486	20.816428
202.063436	-3.023600	3.835900	-11.597000	22.539756	0.000486	20.807096
203.058465	-3.004400	3.837200	-11.527000	22.542523	0.000487	20.791375
204.057210	-2.982700	3.836700	-11.443000	22.553736	0.000486	20.784587
205.066286	-2.992000	3.837300	-11.480000	22.561286	0.000488	20.786459
206.059204	-2.991200	3.836700	-11.476000	22.569661	0.000488	20.783467
207.059007	-2.992400	3.835600	-11.476000	22.590193	0.000488	20.822049
208.064126	-2.995100	3.835600	-11.488000	22.628117	0.000488	20.814515
209.060824	-3.036600	3.835100	-11.645000	22.613640	0.000487	20.815188
210.063824	-3.006200	3.835400	-11.529000	22.628293	0.000488	20.800466
211.062020	-3.012800	3.835300	-11.554000	22.588653	0.000489	20.800118
212.061192	-3.003700	3.835700	-11.520000	22.604401	0.000489	20.796451
213.064154	-3.006600	3.833700	-11.526000	22.624135	0.000491	20.811475
214.069962	-2.984300	3.835900	-11.447000	22.650897	0.000490	20.807934
215.064068	-3.001300	3.832700	-11.503000	22.649574	0.000491	20.800445
216.063718	-2.997500	3.834300	-11.491000	22.669758	0.000494	20.781307
217.065713	-3.009800	3.833700	-11.538000	22.662908	0.000491	20.794360
218.063928	-3.007700	3.833800	-11.530000	22.682940	0.000491	20.797830
219.066067	-3.036400	3.832800	-11.637000	22.686903	0.000491	20.815549
220.065695	-2.987000	3.832500	-11.447000	22.690516	0.000492	20.811108
221.067100	-2.985500	3.834300	-11.446000	22.692809	0.000491	20.802973
222.064393	-2.970800	3.833200	-11.387000	22.695798	0.000490	20.801700
223.065285	-2.988600	3.832500	-11.453000	22.700459	0.000493	20.803050
224.067342	-3.007900	3.832500	-11.527000	22.693460	0.000492	20.794142
225.065587	-2.993100	3.832000	-11.468000	22.694907	0.000496	20.803652
226.070282	-2.988500	3.832900	-11.453000	22.727941	0.000494	20.828206
227.067372	-2.984000	3.833600	-11.439000	22.715412	0.000497	20.801907
228.068881	-3.000900	3.831900	-11.498000	22.738782	0.000495	20.810143
229.067688	-2.992000	3.830500	-11.459000	22.749047	0.000493	20.814261
230.068675	-3.008800	3.832100	-11.530000	22.754553	0.000495	20.813613
231.070690	-3.002300	3.832200	-11.505000	22.761405	0.000493	20.811942
232.073221	-2.987300	3.831500	-11.445000	22.777650	0.000494	20.804507
233.071974	-2.989300	3.832500	-11.456000	22.785746	0.000496	20.802660
234.072731	-2.980000	3.830500	-11.414000	22.798528	0.000496	20.807878
235.076998	-2.999500	3.830500	-11.489000	22.803885	0.000497	20.791434
236.071992	-3.021300	3.830900	-11.574000	22.797833	0.000494	20.807656
237.073927	-2.981300	3.830800	-11.420000	22.807151	0.000497	20.814620
238.073455	-3.009200	3.830200	-11.524000	22.803141	0.000497	20.809180
239.072876	-3.003800	3.830500	-11.505000	22.796839	0.000499	20.814247
240.073769	-2.995600	3.828800	-11.468000	22.803019	0.000496	20.810481
241.073484	-3.001000	3.828800	-11.489000	22.804514	0.000497	20.803443
242.080974	-3.018800	3.827900	-11.554000	22.809199	0.000499	20.794861
243.077051	-2.989100	3.828800	-11.443000	22.821057	0.000498	20.819541
244.079519	-3.024900	3.827200	-11.575000	22.841982	0.000501	20.817744
245.076394	-3.006900	3.828700	-11.512000	22.809303	0.000501	20.808240
246.075556	-3.007400	3.828200	-11.512000	22.850654	0.000501	20.799880
247.075922	-3.005700	3.827600	-11.504000	22.837327	0.000499	20.821142
248.078747	-2.996000	3.829000	-11.471000	22.828659	0.000501	20.813880
249.078755	-2.996500	3.827000	-11.466000	22.812469	0.000499	20.822318
250.079253	-2.979600	3.828700	-11.407000	22.827216	0.000501	20.819547
251.081466	-2.980900	3.827600	-11.409000	22.848416	0.000502	20.809017
252.079767	-2.973900	3.828300	-11.384000	22.860149	0.000502	20.830728
253.091089	-3.029900	3.827500	-11.596000	22.883219	0.000502	20.811166
254.080286	-3.006000	3.826400	-11.501000	22.896121	0.000502	20.818877
255.079935	-2.997000	3.827000	-11.468000	22.875797	0.000503	20.819852
256.079214	-3.014000	3.825200	-11.528000	22.910671	0.000503	20.813539
257.080896	-3.007800	3.826000	-11.505000	22.899862	0.000502	20.838271
258.083695	-2.999100	3.825700	-11.473000	22.913414	0.000502	20.818183
259.081658	-3.006000	3.825400	-11.498000	22.920438	0.000503	20.829488
260.081244	-2.996900	3.826500	-11.467000	22.932721	0.000507	20.810499
261.079948	-2.993000	3.826400	-11.451000	22.958727	0.000503	20.810477
262.083496	-3.010300	3.824400	-11.511000	22.926372	0.000504	20.825475
263.083151	-3.010100	3.825000	-11.513000	22.952354	0.000504	20.820212
264.084716	-3.014900	3.823500	-11.527000	22.946051	0.000506	20.808207
265.081795	-3.007800	3.825700	-11.505000	22.947844	0.000507	20.822807
266.081209	-3.021500	3.823700	-11.552000	22.963417	0.000506	20.833192
267.084970	-3.003400	3.824300	-11.485000	22.998635	0.000506	20.813003
268.082355	-2.994800	3.823600	-11.450000	23.040480	0.000507	20.816997
269.082692	-3.025900	3.822200	-11.564000	23.044416	0.000507	20.823786
270.082386	-2.999400	3.822900	-11.466000	23.049176	0.000509	20.835193
271.081836	-2.994400	3.823000	-11.447000	23.024992	0.000508	20.824712
272.082936	-3.006900	3.822900	-11.494000	23.036872	0.000507	20.840882
