LabVIEW Measurement	
Writer_Version	2
Reader_Version	2
Separator	Tab
Decimal_Separator	.
Multi_Headings	No
X_Columns	One
Time_Pref	Absolute
Operator	admin
Description	Clolumns are: time, Current, Voltage, Power, Battery Temp, and Chamber Temp
Date	2024/08/16
Time	13:07:17.8513970375061035156
***End_of_Header***	
	
Channels	6						
Samples	1	1	1	1	1	1	
Date	2024/09/19	2024/09/19	2024/09/19	2024/09/19	2024/09/19	2024/09/19	
Time	23:45:39.4020776748657226563	23:45:39.4080710411071777344	23:45:39.4139609336853027344	23:45:39.3855834007263183594	23:45:39.3855834007263183594	23:45:39.3855834007263183594	
X_Dimension	Time	Time	Time	Time	Time	Time	
X0	0.0000000000000000E+0	0.0000000000000000E+0	0.0000000000000000E+0	0.0000000000000000E+0	0.0000000000000000E+0	0.0000000000000000E+0	
Delta_X	1.000000	1.000000	1.000000	1.000000	1.000000	1.000000	
***End_of_Header***							
X_Value	Untitled	Untitled 1	Untitled 2	Untitled 3	Untitled 4	Untitled 5	Comment
0.000000	0.006552	4.086600	0.026959	20.848153	0.000475	20.856214
0.998817	-2.988200	3.912200	-11.689000	20.862851	0.000471	20.835826
1.998540	-2.976000	3.906700	-11.626000	20.850769	0.000473	20.821846
2.999233	-2.998300	3.901400	-11.696000	20.856217	0.000470	20.832510
4.003789	-3.007100	3.898100	-11.722000	20.866093	0.000471	20.830533
5.001093	-3.011800	3.897600	-11.738000	20.887552	0.000470	20.825915
5.999343	-3.017900	3.892900	-11.748000	20.869988	0.000468	20.848178
7.005339	-3.014200	3.890800	-11.727000	20.864593	0.000469	20.851791
8.001754	-2.981500	3.890700	-11.598000	20.875002	0.000468	20.829011
9.002191	-2.997400	3.887700	-11.653000	20.889923	0.000467	20.826864
10.001389	-2.971000	3.886200	-11.545000	20.907790	0.000464	20.836198
11.002527	-3.001800	3.885400	-11.663000	20.909213	0.000465	20.820551
12.007138	-3.003000	3.881600	-11.655000	20.902628	0.000466	20.828190
12.999962	-2.999000	3.880900	-11.638000	20.901723	0.000465	20.817802
14.004185	-3.028700	3.879700	-11.749000	20.929224	0.000465	20.830607
15.003432	-3.028500	3.878900	-11.746000	20.921338	0.000463	20.810867
16.005119	-3.006800	3.878500	-11.661000	20.922286	0.000465	20.831255
17.000845	-3.010900	3.877800	-11.675000	20.951407	0.000463	20.821025
18.005903	-3.006100	3.876400	-11.652000	20.954676	0.000460	20.809596
19.006826	-2.987900	3.876200	-11.580000	20.970244	0.000463	20.824691
20.009939	-2.979100	3.875800	-11.545000	20.980426	0.000460	20.806900
21.007299	-2.988600	3.873200	-11.575000	20.987187	0.000461	20.839740
22.005759	-2.991300	3.872900	-11.584000	20.993976	0.000461	20.836099
23.003179	-2.995100	3.872300	-11.597000	21.011941	0.000461	20.813764
24.005788	-3.010200	3.871800	-11.654000	21.011064	0.000460	20.811465
25.008725	-3.020500	3.872200	-11.695000	21.020874	0.000459	20.819854
26.005731	-3.003900	3.870900	-11.627000	21.032998	0.000459	20.822971
27.012033	-3.000600	3.870700	-11.614000	21.024338	0.000460	20.798663
28.007425	-3.015400	3.869800	-11.668000	21.023492	0.000459	20.805403
29.008831	-3.017000	3.870300	-11.676000	21.056976	0.000458	20.806178
30.009033	-3.007400	3.868900	-11.634000	21.072418	0.000458	20.808821
31.010959	-3.022600	3.868100	-11.690000	21.069670	0.000457	20.826461
32.008916	-3.010500	3.869000	-11.647000	21.088715	0.000460	20.789561
33.006074	-3.014600	3.868000	-11.660000	21.104826	0.000458	20.831280
34.012067	-3.025500	3.866400	-11.697000	21.102131	0.000457	20.813411
35.006962	-3.002900	3.867500	-11.613000	21.108469	0.000458	20.813588
36.007826	-3.000400	3.866100	-11.599000	21.100755	0.000457	20.821518
37.018638	-2.980400	3.866400	-11.521000	21.118247	0.000455	20.812463
38.009945	-3.018600	3.863900	-11.663000	21.125857	0.000456	20.822919
39.008657	-3.003900	3.865600	-11.611000	21.126182	0.000458	20.815184
40.021093	-2.986500	3.865100	-11.542000	21.165299	0.000457	20.792198
41.013773	-2.984100	3.865200	-11.534000	21.163551	0.000456	20.833598
42.012921	-2.991600	3.863400	-11.556000	21.163028	0.000454	20.808419
43.018047	-2.991800	3.863300	-11.558000	21.175250	0.000455	20.807842
44.015471	-2.977100	3.863300	-11.501000	21.183955	0.000455	20.796636
45.010816	-3.002700	3.862300	-11.596000	21.195755	0.000456	20.799906
46.018636	-2.985000	3.863700	-11.533000	21.213615	0.000454	20.797857
47.015976	-3.008000	3.862000	-11.616000	21.201542	0.000455	20.785780
48.017710	-3.003100	3.861800	-11.596000	21.210598	0.000455	20.803848
49.018683	-2.989500	3.862500	-11.546000	21.228333	0.000454	20.807839
50.015704	-2.972900	3.862800	-11.483000	21.238488	0.000456	20.809937
51.020526	-2.967900	3.863000	-11.464000	21.260864	0.000454	20.794863
52.020182	-2.996900	3.861500	-11.572000	21.243277	0.000453	20.806193
53.013788	-3.004400	3.859700	-11.594000	21.273558	0.000455	20.790020
54.013421	-2.973500	3.862300	-11.484000	21.264228	0.000455	20.805341
55.015341	-2.989700	3.860700	-11.541000	21.284785	0.000454	20.815001
56.016378	-3.007000	3.858900	-11.602000	21.293539	0.000452	20.800051
57.018129	-2.985900	3.861100	-11.528000	21.302693	0.000451	20.798778
58.015133	-2.986700	3.860200	-11.528000	21.294735	0.000452	20.799825
59.019135	-2.982700	3.860800	-11.515000	21.309700	0.000455	20.808633
60.020180	-3.032400	3.857300	-11.695000	21.344597	0.000451	20.802295
61.020356	-3.014800	3.858500	-11.631000	21.343399	0.000452	20.797302
62.025502	-3.011100	3.859200	-11.620000	21.340856	0.000453	20.791913
63.019041	-3.005500	3.858700	-11.596000	21.358487	0.000452	20.789164
64.016057	-2.997000	3.858800	-11.564000	21.361083	0.000452	20.791287
65.016207	-3.012500	3.858500	-11.623000	21.385528	0.000452	20.782080
66.021863	-2.996000	3.858200	-11.558000	21.391562	0.000453	20.784798
67.019842	-3.015900	3.857500	-11.632000	21.392761	0.000454	20.784575
68.021689	-2.994400	3.858900	-11.553000	21.403459	0.000450	20.803339
69.019614	-2.980700	3.857000	-11.496000	21.399594	0.000453	20.790463
70.018574	-2.984400	3.857200	-11.510000	21.415979	0.000453	20.773666
71.023055	-2.980100	3.857500	-11.494000	21.417899	0.000454	20.799769
72.021253	-2.983200	3.856200	-11.502000	21.432188	0.000452	20.788461
73.016881	-3.015800	3.855400	-11.626000	21.455733	0.000454	20.808701
74.022463	-3.012000	3.855900	-11.613000	21.445258	0.000452	20.798220
75.016083	-2.982900	3.856500	-11.503000	21.444611	0.000453	20.797572
76.017179	-3.000400	3.854300	-11.563000	21.461222	0.000455	20.783846
77.016490	-3.012200	3.855600	-11.612000	21.485213	0.000453	20.783670
78.021677	-3.004000	3.854600	-11.578000	21.506512	0.000452	20.778429
79.017446	-3.016600	3.855700	-11.630000	21.509554	0.000453	20.776257
80.022480	-3.015500	3.854200	-11.621000	21.522998	0.000454	20.792081
81.023870	-2.998500	3.855000	-11.559000	21.510027	0.000451	20.782895
82.020792	-2.966200	3.855100	-11.434000	21.510749	0.000453	20.768918
83.021201	-2.999600	3.854200	-11.561000	21.535213	0.000453	20.788182
84.022147	-3.001400	3.854300	-11.568000	21.536560	0.000453	20.786211
85.022513	-2.993800	3.853200	-11.535000	21.544368	0.000454	20.776006
86.020261	-2.992600	3.852700	-11.529000	21.587614	0.000455	20.773288
87.020401	-2.984300	3.854300	-11.501000	21.549103	0.000454	20.786908
88.022523	-3.002300	3.852700	-11.566000	21.556062	0.000454	20.797191
89.022530	-3.010800	3.852600	-11.598000	21.609255	0.000455	20.772659
90.021646	-3.013700	3.852800	-11.609000	21.610553	0.000456	20.793398
91.026071	-2.993900	3.854400	-11.538000	21.598807	0.000456	20.796816
92.020270	-3.003300	3.851800	-11.568000	21.615567	0.000455	20.785613
93.027277	-3.028900	3.852900	-11.669000	21.616809	0.000455	20.776899
94.024204	-3.021100	3.852700	-11.639000	21.639155	0.000455	20.776502
95.026134	-2.976000	3.852700	-11.464000	21.637334	0.000454	20.789853
96.022948	-2.995000	3.853700	-11.541000	21.640453	0.000455	20.783016
97.024895	-2.995500	3.851900	-11.538000	21.643169	0.000455	20.785260
98.024015	-2.987400	3.852900	-11.509000	21.656160	0.000456	20.773130
99.027430	-2.986600	3.854000	-11.509000	21.652493	0.000455	20.771357
100.024518	-3.002200	3.851100	-11.561000	21.664539	0.000455	20.770136
101.027746	-3.014900	3.850500	-11.608000	21.681246	0.000455	20.781166
102.024318	-2.999100	3.850900	-11.549000	21.695757	0.000457	20.780989
103.027847	-3.012300	3.851600	-11.601000	21.705285	0.000457	20.778671
104.030159	-2.983400	3.850400	-11.486000	21.717480	0.000458	20.788505
105.027124	-3.012000	3.850400	-11.596000	21.723434	0.000456	20.776446
106.024864	-2.988100	3.850800	-11.505000	21.734080	0.000458	20.773824
107.028734	-2.989400	3.850900	-11.511000	21.733684	0.000455	20.770108
108.030155	-3.026900	3.849100	-11.650000	21.738422	0.000458	20.779118
109.028797	-3.005700	3.850200	-11.572000	21.776075	0.000458	20.771283
110.028449	-2.973800	3.850300	-11.449000	21.772461	0.000458	20.747277
111.028827	-2.991300	3.850300	-11.517000	21.767021	0.000457	20.774075
112.029181	-3.010000	3.849900	-11.587000	21.775198	0.000460	20.759500
113.029110	-3.010000	3.849000	-11.584000	21.794371	0.000460	20.762568
114.031183	-3.009900	3.849800	-11.585000	21.802574	0.000459	20.775520
115.027635	-3.015000	3.848400	-11.602000	21.807137	0.000457	20.769656
116.036882	-3.032900	3.847700	-11.669000	21.848151	0.000458	20.767558
117.029414	-2.986500	3.848100	-11.491000	21.826161	0.000461	20.742229
118.028149	-3.018800	3.849100	-11.619000	21.837057	0.000460	20.764989
119.034947	-3.032000	3.848300	-11.666000	21.856978	0.000460	20.752211
120.034534	-2.983100	3.848600	-11.479000	21.871561	0.000460	20.765860
121.032433	-2.985900	3.847600	-11.488000	21.862935	0.000461	20.760545
122.038606	-2.996300	3.847400	-11.527000	21.879713	0.000459	20.756001
123.034513	-2.993500	3.846900	-11.515000	21.892101	0.000458	20.745167
124.033429	-2.989500	3.847400	-11.501000	21.900655	0.000460	20.763687
125.036164	-2.998500	3.848500	-11.539000	21.907436	0.000462	20.768578
126.032455	-3.003900	3.848100	-11.559000	21.909408	0.000462	20.757275
127.030952	-3.008600	3.847900	-11.576000	21.919653	0.000460	20.745718
128.032835	-2.988700	3.848100	-11.500000	21.904445	0.000461	20.755152
129.033882	-3.020900	3.846500	-11.619000	21.926309	0.000463	20.745269
130.035500	-3.007300	3.846000	-11.565000	21.939424	0.000462	20.749862
131.045887	-2.995400	3.846000	-11.519000	21.950990	0.000462	20.737732
132.037372	-2.984000	3.848400	-11.482000	21.954356	0.000462	20.777137
133.037559	-2.990000	3.847100	-11.502000	21.960588	0.000463	20.759194
134.036871	-2.979600	3.846500	-11.459000	21.970730	0.000463	20.763182
135.035366	-2.991300	3.845800	-11.502000	21.961331	0.000463	20.742867
136.037184	-3.026300	3.844600	-11.634000	21.976067	0.000464	20.757145
137.035353	-3.018400	3.845400	-11.605000	21.980655	0.000464	20.752729
138.044296	-2.991900	3.846000	-11.506000	22.029191	0.000464	20.773341
139.037978	-3.027900	3.844600	-11.640000	22.039636	0.000463	20.761512
140.037932	-2.992700	3.845400	-11.507000	22.014332	0.000464	20.764155
141.036859	-3.000500	3.844400	-11.534000	22.038664	0.000465	20.753426
142.038390	-2.998000	3.845100	-11.525000	22.050004	0.000464	20.754821
143.036703	-2.990200	3.846200	-11.500000	22.061618	0.000464	20.744163
144.036493	-3.009900	3.844700	-11.571000	22.043196	0.000464	20.723349
145.035476	-3.015000	3.844500	-11.589000	22.039831	0.000464	20.747956
146.036656	-3.010700	3.844900	-11.575000	22.070714	0.000464	20.723869
147.038614	-2.999600	3.843000	-11.527000	22.075874	0.000464	20.757012
148.036707	-2.997100	3.844500	-11.521000	22.086192	0.000464	20.765445
149.037874	-3.018300	3.844300	-11.602000	22.111194	0.000465	20.767717
150.040463	-2.999900	3.843800	-11.530000	22.124053	0.000467	20.746925
151.040252	-3.007500	3.842400	-11.555000	22.136066	0.000467	20.754685
152.041393	-2.993500	3.842000	-11.500000	22.120388	0.000468	20.761748
153.038681	-2.991300	3.843600	-11.497000	22.146585	0.000465	20.746249
154.039447	-2.992200	3.842700	-11.497000	22.128560	0.000469	20.753808
155.040477	-2.995600	3.842000	-11.508000	22.128962	0.000469	20.730976
156.039183	-2.982100	3.843500	-11.461000	22.139230	0.000467	20.749317
157.037636	-2.983400	3.842100	-11.462000	22.173106	0.000466	20.735343
158.040360	-2.989900	3.843000	-11.489000	22.163882	0.000470	20.768783
159.041062	-3.011500	3.841100	-11.566000	22.171134	0.000467	20.742852
160.037117	-2.991800	3.842100	-11.494000	22.155354	0.000468	20.746494
161.042710	-3.004700	3.840800	-11.539000	22.192520	0.000470	20.753833
162.039881	-2.985600	3.841500	-11.469000	22.196380	0.000468	20.740153
163.039317	-3.000900	3.840400	-11.524000	22.193715	0.000470	20.745071
164.043170	-2.998100	3.840600	-11.514000	22.217988	0.000471	20.758943
165.039521	-3.002500	3.839800	-11.528000	22.213775	0.000471	20.757571
166.041466	-3.010600	3.839800	-11.559000	22.244383	0.000469	20.744120
167.045669	-2.984400	3.840900	-11.462000	22.261728	0.000470	20.740624
168.040078	-3.005500	3.839600	-11.540000	22.275783	0.000472	20.739524
169.039104	-3.009500	3.839600	-11.554000	22.238995	0.000472	20.727819
170.045491	-3.002000	3.838600	-11.522000	22.278225	0.000474	20.751453
171.048983	-3.004900	3.838700	-11.535000	22.243557	0.000471	20.739974
172.041413	-3.005100	3.839100	-11.536000	22.265040	0.000474	20.753898
173.043032	-3.005500	3.839800	-11.540000	22.262744	0.000472	20.764401
174.046407	-2.972700	3.841300	-11.418000	22.286573	0.000473	20.734680
175.041842	-2.994200	3.838200	-11.492000	22.294598	0.000475	20.738923
176.044756	-3.020600	3.838700	-11.594000	22.332654	0.000474	20.729613
177.043419	-3.022700	3.838100	-11.600000	22.332455	0.000472	20.752649
178.042501	-3.016300	3.837200	-11.572000	22.331456	0.000474	20.750700
179.041937	-3.024000	3.836600	-11.600000	22.362036	0.000476	20.750502
180.040795	-3.001600	3.836700	-11.515000	22.343990	0.000476	20.757562
181.047028	-2.999200	3.838500	-11.511000	22.365348	0.000475	20.741489
182.043583	-3.035300	3.836000	-11.641000	22.369287	0.000473	20.759660
183.045037	-2.987300	3.837200	-11.461000	22.368214	0.000475	20.756214
184.042686	-2.993000	3.837500	-11.484000	22.380648	0.000474	20.754915
185.043091	-2.986400	3.836300	-11.456000	22.380750	0.000478	20.754543
186.049963	-3.004300	3.835800	-11.523000	22.410800	0.000477	20.750970
187.042606	-3.013300	3.835200	-11.556000	22.417005	0.000478	20.764770
188.041899	-3.008400	3.836300	-11.540000	22.430238	0.000476	20.749098
189.044358	-2.983400	3.836800	-11.446000	22.459621	0.000479	20.749600
190.045099	-3.007800	3.835600	-11.536000	22.460741	0.000477	20.759257
191.046033	-2.996800	3.834700	-11.491000	22.441252	0.000479	20.751119
192.045847	-2.991800	3.836500	-11.476000	22.439958	0.000479	20.746030
193.045264	-2.977300	3.835900	-11.420000	22.453014	0.000478	20.741087
194.046890	-3.003400	3.834000	-11.515000	22.460466	0.000480	20.756136
195.042940	-3.000800	3.835000	-11.507000	22.466621	0.000480	20.744756
196.044433	-2.994100	3.833800	-11.478000	22.467642	0.000480	20.754788
197.044651	-2.984300	3.835200	-11.445000	22.488323	0.000481	20.750369
198.045566	-2.990300	3.834100	-11.464000	22.498064	0.000480	20.758228
199.043632	-2.992600	3.834800	-11.475000	22.499113	0.000480	20.747899
200.044746	-3.001800	3.833400	-11.506000	22.501827	0.000481	20.758204
201.045679	-2.998900	3.834700	-11.499000	22.522736	0.000482	20.748798
202.045018	-2.993000	3.833700	-11.473000	22.534068	0.000483	20.760147
203.048204	-3.012700	3.832300	-11.544000	22.528263	0.000484	20.748643
204.047585	-3.017700	3.833400	-11.567000	22.525323	0.000482	20.749492
205.049634	-3.013400	3.833800	-11.552000	22.522136	0.000481	20.751041
206.049870	-2.996300	3.832000	-11.481000	22.534467	0.000480	20.749167
207.048478	-3.009000	3.832200	-11.530000	22.558983	0.000483	20.759496
208.044714	-2.995500	3.832400	-11.479000	22.580584	0.000485	20.739404
209.048258	-3.016500	3.831900	-11.559000	22.557238	0.000484	20.757748
210.049438	-3.014800	3.832900	-11.554000	22.542986	0.000484	20.752483
211.044429	-3.019000	3.831700	-11.567000	22.546250	0.000483	20.750062
212.049129	-2.990400	3.830900	-11.455000	22.586213	0.000484	20.759741
213.048568	-3.005300	3.830800	-11.512000	22.593438	0.000485	20.762710
214.048427	-2.973700	3.832500	-11.396000	22.593441	0.000485	20.750859
215.050441	-3.006400	3.830900	-11.517000	22.620774	0.000487	20.764960
216.048445	-2.999200	3.831700	-11.491000	22.634401	0.000486	20.758220
217.046529	-2.988000	3.829700	-11.442000	22.661882	0.000487	20.761089
218.050929	-2.975000	3.832000	-11.400000	22.633726	0.000485	20.749009
219.058056	-2.992800	3.831000	-11.465000	22.658791	0.000487	20.743294
220.052420	-3.016400	3.830100	-11.552000	22.678524	0.000488	20.746939
221.047027	-3.014800	3.829500	-11.545000	22.661854	0.000488	20.765329
222.051106	-3.000500	3.829800	-11.490000	22.664367	0.000489	20.764527
223.051557	-2.998000	3.831000	-11.485000	22.669654	0.000489	20.742321
224.047539	-3.003600	3.830500	-11.503000	22.666563	0.000488	20.752028
225.050438	-3.017400	3.827300	-11.548000	22.679543	0.000490	20.764080
226.051227	-3.019200	3.827400	-11.554000	22.680588	0.000488	20.763231
227.049588	-3.014800	3.828100	-11.540000	22.687265	0.000490	20.771342
228.045313	-3.005200	3.828700	-11.505000	22.727702	0.000489	20.748309
229.050361	-3.011500	3.827700	-11.525000	22.689156	0.000488	20.767545
230.049687	-3.004200	3.828600	-11.500000	22.707094	0.000489	20.762754
231.047372	-3.014100	3.827900	-11.537000	22.718854	0.000492	20.765051
232.051573	-3.014100	3.826700	-11.531000	22.723485	0.000491	20.761155
233.047982	-3.000600	3.827100	-11.483000	22.720252	0.000490	20.761235
234.051278	-2.978400	3.828400	-11.402000	22.742843	0.000490	20.778175
235.049744	-2.990800	3.827800	-11.448000	22.741423	0.000492	20.768218
236.052862	-2.991100	3.827000	-11.446000	22.753257	0.000492	20.772485
237.052562	-2.990400	3.826500	-11.441000	22.732652	0.000492	20.759432
238.047877	-3.001700	3.824900	-11.480000	22.762501	0.000491	20.785065
239.051563	-2.985900	3.826800	-11.425000	22.787810	0.000493	20.760631
240.053935	-2.989100	3.826400	-11.436000	22.806369	0.000493	20.783965
241.051030	-3.001200	3.823800	-11.475000	22.800838	0.000494	20.781743
242.052036	-2.998600	3.824400	-11.467000	22.806496	0.000494	20.774608
243.059256	-3.017600	3.824100	-11.539000	22.821741	0.000494	20.804105
244.052221	-3.014100	3.825000	-11.528000	22.832451	0.000495	20.761254
245.053295	-2.993300	3.825400	-11.450000	22.845728	0.000494	20.760331
246.056257	-3.009300	3.823700	-11.506000	22.857759	0.000494	20.768116
247.051334	-3.023000	3.823300	-11.557000	22.850285	0.000495	20.778172
248.049007	-2.978700	3.824100	-11.390000	22.857483	0.000496	20.761676
249.052972	-3.015100	3.822700	-11.524000	22.858953	0.000494	20.789701
250.052986	-3.011500	3.824200	-11.515000	22.850956	0.000497	20.795441
251.053487	-2.977600	3.823800	-11.385000	22.872054	0.000496	20.791920
252.053147	-2.987700	3.823100	-11.422000	22.886230	0.000498	20.773406
253.050109	-3.013100	3.822900	-11.518000	22.927375	0.000496	20.784281
254.052464	-2.980700	3.822300	-11.393000	22.919109	0.000496	20.772681
255.050298	-3.003700	3.822300	-11.480000	22.907797	0.000499	20.767986
256.049954	-2.995100	3.822700	-11.448000	22.939108	0.000497	20.783708
257.050956	-3.013900	3.821300	-11.516000	22.960652	0.000496	20.780637
258.052198	-3.004400	3.821300	-11.480000	22.971939	0.000500	20.802376
259.057103	-3.001300	3.821600	-11.469000	22.967853	0.000498	20.768885
260.052520	-2.992500	3.822900	-11.439000	22.966807	0.000499	20.800554
261.054661	-2.996400	3.820800	-11.447000	22.950664	0.000500	20.789596
262.053322	-2.982700	3.822600	-11.400000	22.978533	0.000500	20.777690
263.057921	-2.986200	3.821800	-11.411000	22.970392	0.000502	20.814103
264.053061	-2.993400	3.819100	-11.431000	22.971608	0.000500	20.794459
265.054903	-3.014100	3.819600	-11.511000	23.015471	0.000501	20.788146
266.062754	-3.009700	3.819900	-11.496000	22.983891	0.000501	20.792540
267.055616	-3.000700	3.819500	-11.460000	22.999477	0.000502	20.787768
268.053753	-3.021100	3.819300	-11.538000	23.008892	0.000502	20.787244
269.054820	-2.995400	3.820400	-11.442000	23.038857	0.000503	20.799250
270.055820	-3.015600	3.819500	-11.517000	23.005904	0.000504	20.798001
271.055860	-3.010100	3.819000	-11.494000	23.008914	0.000502	20.803862
272.063212	-3.000600	3.819700	-11.460000	23.030110	0.000503	20.792857
