LabVIEW Measurement	
Writer_Version	2
Reader_Version	2
Separator	Tab
Decimal_Separator	.
Multi_Headings	No
X_Columns	One
Time_Pref	Absolute
Operator	admin
Description	Clolumns are: time, Current, Voltage, Power, Battery Temp, and Chamber Temp
Date	2024/08/16
Time	13:07:17.8513970375061035156
***End_of_Header***	
	
Channels	6						
Samples	1	1	1	1	1	1	
Date	2024/09/11	2024/09/11	2024/09/11	2024/09/11	2024/09/11	2024/09/11	
Time	09:32:33.4578800201416015625	09:32:33.4666070938110351563	09:32:33.4745945930480957032	09:32:33.4376749992370605469	09:32:33.4376749992370605469	09:32:33.4376749992370605469	
X_Dimension	Time	Time	Time	Time	Time	Time	
X0	0.0000000000000000E+0	0.0000000000000000E+0	0.0000000000000000E+0	0.0000000000000000E+0	0.0000000000000000E+0	0.0000000000000000E+0	
Delta_X	1.000000	1.000000	1.000000	1.000000	1.000000	1.000000	
***End_of_Header***							
X_Value	Untitled	Untitled 1	Untitled 2	Untitled 3	Untitled 4	Untitled 5	Comment
0.000000	0.017600	4.093800	0.072272	20.839078	0.000461	20.820113
0.997952	-2.980600	3.922700	-11.692000	20.825564	0.000459	20.807072
1.997829	-2.985400	3.916300	-11.691000	20.827502	0.000457	20.822287
3.005043	-3.000500	3.912300	-11.738000	20.824362	0.000456	20.802078
3.997161	-3.007700	3.907600	-11.752000	20.827460	0.000455	20.821770
5.001736	-3.002100	3.904400	-11.720000	20.806770	0.000455	20.820046
6.001504	-3.008100	3.902300	-11.738000	20.847332	0.000454	20.821254
7.005681	-3.001200	3.900700	-11.705000	20.846759	0.000453	20.814043
8.002578	-3.008500	3.896500	-11.722000	20.863231	0.000452	20.803015
9.005014	-3.004000	3.897100	-11.706000	20.891211	0.000451	20.811082
10.012672	-2.997700	3.894800	-11.675000	20.878009	0.000450	20.822536
11.004549	-2.981500	3.894400	-11.610000	20.876488	0.000449	20.812480
12.003922	-3.018900	3.892600	-11.749000	20.932644	0.000449	20.804156
13.006669	-3.004600	3.890400	-11.688000	20.889844	0.000451	20.808294
14.005639	-3.001000	3.889800	-11.672000	20.918445	0.000449	20.839267
15.008681	-2.982300	3.889800	-11.599000	20.913188	0.000449	20.806983
16.007977	-3.001000	3.886600	-11.663000	20.935127	0.000447	20.826553
17.006186	-3.000200	3.885900	-11.658000	20.925522	0.000448	20.803671
18.009728	-3.005400	3.884600	-11.673000	20.931562	0.000445	20.800703
19.005277	-3.020900	3.884100	-11.733000	20.952977	0.000447	20.826862
20.003675	-3.013100	3.884400	-11.703000	20.952707	0.000446	20.833230
21.007528	-3.000000	3.882000	-11.645000	20.981380	0.000445	20.819708
22.006707	-3.009700	3.881300	-11.681000	20.974251	0.000445	20.804992
23.002896	-3.005700	3.882100	-11.667000	20.987100	0.000443	20.831119
24.005643	-2.985100	3.882200	-11.588000	20.989664	0.000444	20.807130
25.008004	-3.003400	3.879400	-11.651000	20.987939	0.000443	20.827217
26.008239	-3.009600	3.879200	-11.674000	20.989491	0.000444	20.820708
27.009164	-2.977200	3.879000	-11.547000	21.017893	0.000441	20.806916
28.009577	-2.983300	3.878900	-11.571000	21.030029	0.000442	20.833752
29.009707	-3.009000	3.877900	-11.668000	21.029113	0.000442	20.826672
30.004893	-3.011600	3.877100	-11.675000	21.029471	0.000442	20.812332
31.009808	-3.009300	3.877100	-11.666000	21.058648	0.000443	20.820178
32.010280	-3.005500	3.875400	-11.646000	21.058044	0.000440	20.797289
33.005938	-3.003600	3.875600	-11.639000	21.081065	0.000440	20.811306
34.011622	-2.997300	3.876700	-11.619000	21.074010	0.000442	20.819897
35.009440	-2.991400	3.875500	-11.593000	21.081774	0.000440	20.842360
36.007274	-3.018500	3.874100	-11.693000	21.091391	0.000439	20.811204
37.010510	-2.994300	3.874800	-11.601000	21.125750	0.000440	20.828976
38.013240	-3.000000	3.873300	-11.619000	21.102308	0.000440	20.810744
39.011451	-3.002800	3.874400	-11.633000	21.099127	0.000439	20.828898
40.010433	-2.990300	3.873200	-11.581000	21.132716	0.000438	20.833099
41.011761	-3.016700	3.871200	-11.677000	21.137112	0.000439	20.840815
42.009456	-2.997400	3.872700	-11.607000	21.141361	0.000437	20.816616
43.012938	-3.013000	3.873100	-11.668000	21.154966	0.000438	20.834493
44.011050	-3.014200	3.871300	-11.666000	21.166855	0.000439	20.834532
45.012840	-2.996000	3.870900	-11.597000	21.161722	0.000439	20.825130
46.011207	-3.004300	3.871600	-11.631000	21.187153	0.000437	20.806473
47.014361	-3.016600	3.871200	-11.677000	21.180752	0.000437	20.812398
48.015667	-2.995700	3.870000	-11.593000	21.189161	0.000439	20.839776
49.012634	-2.990900	3.871600	-11.578000	21.213545	0.000438	20.826710
50.013654	-3.004900	3.870600	-11.630000	21.221561	0.000438	20.840418
51.012353	-3.024600	3.870200	-11.705000	21.225507	0.000436	20.839151
52.011887	-2.990200	3.869700	-11.570000	21.243705	0.000436	20.843130
53.013513	-3.021200	3.869000	-11.688000	21.227081	0.000436	20.824129
54.012653	-2.998000	3.869000	-11.598000	21.248792	0.000435	20.816926
55.012405	-2.991200	3.869400	-11.574000	21.249919	0.000434	20.820898
56.017641	-2.982800	3.869500	-11.541000	21.259486	0.000437	20.838530
57.014280	-3.009300	3.868400	-11.640000	21.275355	0.000437	20.841603
58.018450	-2.999100	3.868900	-11.603000	21.289114	0.000435	20.842565
59.015761	-2.987900	3.868500	-11.558000	21.300005	0.000434	20.834495
60.015277	-2.991800	3.868800	-11.574000	21.315473	0.000435	20.823891
61.017737	-2.992500	3.867500	-11.572000	21.295680	0.000436	20.816892
62.016506	-2.979500	3.868700	-11.526000	21.318714	0.000436	20.815280
63.016603	-2.957600	3.868600	-11.441000	21.331535	0.000437	20.826684
64.015891	-2.984700	3.868000	-11.543000	21.334842	0.000437	20.830941
65.013528	-3.005600	3.866200	-11.619000	21.363260	0.000436	20.853682
66.013451	-3.003400	3.867000	-11.613000	21.350250	0.000434	20.828813
67.018302	-2.978400	3.867200	-11.517000	21.362759	0.000435	20.811930
68.016135	-2.996300	3.866000	-11.583000	21.383260	0.000436	20.849984
69.016894	-2.994000	3.866400	-11.575000	21.391805	0.000434	20.852843
70.016583	-2.999300	3.865000	-11.592000	21.392490	0.000435	20.837882
71.020014	-2.982800	3.866100	-11.531000	21.409206	0.000435	20.852710
72.014244	-2.982100	3.866300	-11.529000	21.394702	0.000434	20.826345
73.019460	-2.990500	3.866600	-11.563000	21.419556	0.000437	20.825134
74.020190	-2.975200	3.866700	-11.504000	21.421760	0.000434	20.839193
75.015429	-2.991800	3.863700	-11.558000	21.400238	0.000436	20.834255
76.022346	-3.000900	3.864500	-11.596000	21.412894	0.000437	20.830322
77.016481	-3.007500	3.863300	-11.617000	21.440394	0.000435	20.838397
78.017477	-3.000300	3.863900	-11.591000	21.446709	0.000437	20.832862
79.015562	-2.982000	3.864600	-11.523000	21.445172	0.000437	20.818522
80.018673	-3.004900	3.863300	-11.607000	21.456503	0.000436	20.834127
81.019177	-3.002600	3.865000	-11.604000	21.490131	0.000436	20.827946
82.015054	-2.985600	3.863200	-11.533000	21.497173	0.000437	20.809862
83.019176	-2.996500	3.864100	-11.577000	21.516019	0.000435	20.823978
84.016666	-3.021400	3.862300	-11.668000	21.509515	0.000436	20.824582
85.017138	-3.001300	3.863200	-11.593000	21.503419	0.000436	20.812792
86.023496	-3.003700	3.863000	-11.602000	21.513075	0.000435	20.808230
87.020225	-3.013500	3.862400	-11.639000	21.521489	0.000437	20.826132
88.017437	-3.008000	3.862000	-11.617000	21.522525	0.000435	20.819582
89.018803	-3.013800	3.862100	-11.639000	21.558773	0.000439	20.800378
90.026691	-2.992300	3.862400	-11.556000	21.551999	0.000437	20.798341
91.025955	-2.995800	3.861200	-11.566000	21.567896	0.000436	20.809033
92.019031	-2.982700	3.863000	-11.521000	21.570182	0.000437	20.819854
93.027540	-3.010700	3.862200	-11.627000	21.591185	0.000438	20.805311
94.021873	-3.033800	3.859900	-11.708000	21.564812	0.000435	20.811637
95.024452	-2.997400	3.862100	-11.575000	21.596075	0.000438	20.821584
96.025469	-3.012000	3.861400	-11.629000	21.614832	0.000437	20.800999
97.023433	-2.993500	3.862900	-11.563000	21.613776	0.000436	20.807529
98.024449	-2.995000	3.862400	-11.567000	21.640310	0.000438	20.788563
99.020742	-3.003000	3.860000	-11.591000	21.619681	0.000438	20.779298
100.025370	-3.000900	3.860100	-11.582000	21.621190	0.000437	20.802146
101.024522	-2.989600	3.860900	-11.542000	21.634440	0.000436	20.796439
102.024226	-2.968500	3.861700	-11.462000	21.635722	0.000437	20.783023
103.025719	-3.001200	3.860900	-11.586000	21.651846	0.000437	20.788728
104.020685	-3.002900	3.859100	-11.587000	21.664663	0.000439	20.790175
105.027461	-3.008300	3.860500	-11.613000	21.659719	0.000436	20.803719
106.023192	-2.989500	3.860900	-11.541000	21.673646	0.000437	20.789207
107.028545	-2.997800	3.858300	-11.565000	21.691836	0.000436	20.792239
108.027369	-3.009400	3.858500	-11.611000	21.688903	0.000435	20.792622
109.025311	-2.975600	3.859400	-11.483000	21.712607	0.000437	20.777938
110.031293	-2.995400	3.859500	-11.560000	21.698401	0.000439	20.777471
111.031942	-3.005400	3.858400	-11.595000	21.714868	0.000438	20.790632
112.032593	-3.004500	3.859400	-11.595000	21.735982	0.000437	20.788530
113.031334	-3.012700	3.858400	-11.623000	21.741755	0.000438	20.791937
114.030155	-3.014800	3.857400	-11.629000	21.756678	0.000440	20.785061
115.035378	-2.998000	3.858700	-11.567000	21.742954	0.000439	20.779860
116.034554	-2.997800	3.856900	-11.561000	21.736230	0.000438	20.767441
117.031436	-3.017500	3.859000	-11.643000	21.770781	0.000437	20.779735
118.030982	-3.004900	3.857300	-11.590000	21.766458	0.000442	20.772564
119.032351	-3.007100	3.857300	-11.598000	21.784297	0.000441	20.774771
120.028119	-3.007000	3.858500	-11.602000	21.757112	0.000440	20.787392
121.028053	-3.027800	3.855800	-11.674000	21.773904	0.000440	20.773378
122.031483	-2.981200	3.858000	-11.500000	21.793409	0.000440	20.760657
123.027390	-2.975400	3.858500	-11.480000	21.806861	0.000441	20.762741
124.030520	-2.987600	3.857000	-11.522000	21.819323	0.000440	20.760515
125.034983	-3.004200	3.855900	-11.582000	21.838697	0.000441	20.752880
126.029978	-3.000000	3.854900	-11.564000	21.842772	0.000441	20.764545
127.029474	-3.012000	3.855400	-11.612000	21.842313	0.000440	20.765508
128.031886	-3.012400	3.856300	-11.616000	21.858109	0.000441	20.771361
129.029224	-3.018300	3.854400	-11.632000	21.848127	0.000441	20.762318
130.032299	-2.983300	3.857100	-11.506000	21.865367	0.000443	20.764402
131.037031	-3.019400	3.854100	-11.636000	21.874204	0.000443	20.754280
132.031096	-2.997800	3.855000	-11.556000	21.874889	0.000442	20.761130
133.031077	-3.022400	3.854800	-11.649000	21.872707	0.000442	20.767955
134.032801	-3.009900	3.854900	-11.601000	21.889817	0.000443	20.741459
135.039398	-3.008300	3.855700	-11.598000	21.896334	0.000441	20.758414
136.034374	-3.017400	3.854700	-11.631000	21.900417	0.000441	20.757758
137.033247	-3.006700	3.854700	-11.590000	21.902768	0.000441	20.761535
138.043775	-2.980900	3.854100	-11.488000	21.910910	0.000441	20.748821
139.033485	-2.984800	3.854700	-11.504000	21.936620	0.000443	20.732355
140.039149	-2.987100	3.854100	-11.511000	21.942049	0.000443	20.748223
141.032565	-2.966500	3.855100	-11.436000	21.964026	0.000442	20.737030
142.033075	-2.988900	3.854300	-11.519000	21.978349	0.000443	20.738566
143.033366	-2.987600	3.854600	-11.515000	21.989227	0.000445	20.743291
144.035674	-3.028200	3.853000	-11.666000	21.980986	0.000442	20.737886
145.034001	-2.998400	3.854400	-11.557000	21.971756	0.000444	20.727698
146.045604	-2.991000	3.853300	-11.525000	21.994721	0.000443	20.730772
147.037927	-3.008000	3.852800	-11.588000	21.994589	0.000445	20.746762
148.035166	-3.012500	3.852300	-11.604000	22.005548	0.000445	20.729756
149.032458	-2.997500	3.854200	-11.552000	22.010798	0.000444	20.735012
150.037082	-3.003800	3.852400	-11.570000	22.017886	0.000446	20.752066
151.038729	-2.991400	3.852700	-11.524000	22.010976	0.000445	20.712430
152.034829	-2.997600	3.852800	-11.549000	22.017574	0.000445	20.724251
153.035364	-3.011700	3.852900	-11.602000	22.021395	0.000445	20.742302
154.033454	-2.980700	3.851100	-11.478000	22.047159	0.000446	20.734903
155.036299	-3.005500	3.851000	-11.573000	22.052964	0.000446	20.752095
156.042081	-2.991500	3.852100	-11.523000	22.048741	0.000447	20.732694
157.038129	-3.011200	3.850700	-11.595000	22.051068	0.000449	20.721746
158.036042	-3.008300	3.851100	-11.584000	22.058344	0.000448	20.734720
159.034635	-3.016800	3.850500	-11.616000	22.065815	0.000446	20.721336
160.036896	-3.025100	3.848600	-11.641000	22.060515	0.000447	20.718874
161.036469	-3.025700	3.849600	-11.647000	22.081272	0.000447	20.739182
162.037130	-3.009600	3.849700	-11.585000	22.105369	0.000448	20.722528
163.039213	-3.002900	3.850400	-11.561000	22.100175	0.000446	20.724914
164.037065	-2.986500	3.849700	-11.496000	22.119886	0.000449	20.717621
165.035371	-2.998000	3.851200	-11.545000	22.130370	0.000447	20.729540
166.040592	-2.980800	3.850000	-11.475000	22.129488	0.000449	20.718225
167.044031	-3.003600	3.849900	-11.563000	22.114299	0.000450	20.724356
168.042596	-2.999100	3.848600	-11.541000	22.127837	0.000449	20.693812
169.040839	-3.015400	3.849500	-11.607000	22.137113	0.000449	20.728230
170.043309	-2.992700	3.849000	-11.517000	22.146233	0.000450	20.714127
171.039626	-3.004400	3.848500	-11.562000	22.164964	0.000450	20.710120
172.045835	-3.002800	3.848600	-11.556000	22.177032	0.000451	20.727894
173.039871	-3.012300	3.848500	-11.592000	22.159631	0.000451	20.703832
174.042245	-2.993400	3.847700	-11.517000	22.176100	0.000451	20.690448
175.040709	-2.988600	3.849100	-11.501000	22.171037	0.000450	20.721417
176.044057	-2.993600	3.847100	-11.516000	22.172442	0.000452	20.711443
177.045440	-2.992600	3.848800	-11.516000	22.188763	0.000452	20.714508
178.045200	-3.017400	3.847200	-11.608000	22.187653	0.000450	20.714344
179.051597	-3.015600	3.847900	-11.604000	22.211854	0.000451	20.700642
180.045626	-2.994200	3.847100	-11.518000	22.216858	0.000453	20.703756
181.044022	-2.995900	3.847100	-11.524000	22.221079	0.000453	20.707983
182.050009	-2.997200	3.846300	-11.527000	22.208954	0.000452	20.691100
183.050695	-3.014100	3.846600	-11.593000	22.235171	0.000452	20.698384
184.042794	-3.005500	3.847300	-11.563000	22.247753	0.000452	20.683005
185.046189	-3.008200	3.846500	-11.570000	22.282036	0.000454	20.706428
186.056106	-2.991400	3.846800	-11.506000	22.271536	0.000453	20.692121
187.044091	-2.997800	3.846600	-11.531000	22.297728	0.000452	20.710761
188.057064	-3.002200	3.845600	-11.545000	22.286681	0.000455	20.676464
189.049179	-2.983500	3.845900	-11.473000	22.304137	0.000454	20.692047
190.050014	-3.016800	3.845200	-11.599000	22.301818	0.000454	20.705373
191.053097	-2.986200	3.846300	-11.484000	22.332270	0.000456	20.709788
192.048048	-3.006100	3.844900	-11.557000	22.322294	0.000456	20.674665
193.050435	-3.017100	3.844200	-11.597000	22.332948	0.000456	20.698137
194.055212	-3.009500	3.844700	-11.569000	22.341112	0.000459	20.682603
195.050773	-2.986200	3.844700	-11.480000	22.349439	0.000458	20.717972
196.048613	-3.000200	3.844100	-11.531000	22.360918	0.000459	20.693902
197.051510	-3.015700	3.844400	-11.592000	22.366445	0.000457	20.698489
198.052382	-3.010100	3.843300	-11.568000	22.342916	0.000459	20.686781
199.060859	-3.011300	3.843500	-11.572000	22.354126	0.000457	20.690894
200.052702	-2.987800	3.842200	-11.479000	22.349734	0.000456	20.685547
201.053736	-2.980300	3.844900	-11.458000	22.352844	0.000457	20.688662
202.053828	-3.004300	3.842700	-11.544000	22.394856	0.000458	20.675254
203.052567	-3.000700	3.841800	-11.527000	22.404701	0.000459	20.679424
204.064907	-2.988000	3.842200	-11.480000	22.375981	0.000458	20.673897
205.054279	-2.995200	3.843000	-11.509000	22.385076	0.000460	20.669728
206.053113	-3.005800	3.841100	-11.545000	22.413862	0.000460	20.662043
207.054800	-2.993900	3.842200	-11.503000	22.426834	0.000458	20.679777
208.056193	-3.010700	3.840300	-11.561000	22.410801	0.000460	20.664194
209.056244	-3.004700	3.841400	-11.541000	22.457324	0.000461	20.681388
210.059846	-3.012800	3.840800	-11.570000	22.455227	0.000460	20.684503
211.053743	-2.986100	3.841900	-11.472000	22.452982	0.000460	20.677039
212.056859	-3.028500	3.840500	-11.630000	22.454493	0.000460	20.663852
213.059663	-2.995000	3.840300	-11.501000	22.446608	0.000462	20.665438
214.057581	-2.988600	3.841900	-11.481000	22.482992	0.000462	20.685282
215.052790	-2.998600	3.841000	-11.517000	22.498902	0.000462	20.671343
216.054990	-2.998100	3.841000	-11.515000	22.466928	0.000462	20.676306
217.056950	-2.996800	3.840800	-11.509000	22.491148	0.000463	20.673535
218.052735	-2.993700	3.840200	-11.495000	22.488798	0.000464	20.656006
219.057379	-3.014100	3.840200	-11.574000	22.516887	0.000462	20.669440
220.062707	-3.000800	3.840200	-11.522000	22.506382	0.000465	20.660815
221.056779	-2.978900	3.842100	-11.445000	22.530969	0.000465	20.667896
222.056821	-2.992600	3.838900	-11.488000	22.537900	0.000464	20.644489
223.062022	-3.008400	3.838500	-11.547000	22.539337	0.000463	20.653990
224.053988	-2.972200	3.840200	-11.414000	22.523911	0.000466	20.651342
225.056638	-3.009200	3.837700	-11.547000	22.495080	0.000465	20.645702
226.054558	-3.006200	3.838900	-11.540000	22.564488	0.000467	20.664957
227.054535	-2.999300	3.838000	-11.510000	22.567852	0.000468	20.658842
228.057072	-3.005300	3.837500	-11.531000	22.568123	0.000467	20.655319
229.054766	-2.991300	3.837000	-11.477000	22.577910	0.000465	20.673185
230.057043	-3.020300	3.836600	-11.586000	22.593085	0.000469	20.645232
231.059120	-3.004200	3.837800	-11.528000	22.601639	0.000465	20.641945
232.061277	-3.019800	3.837600	-11.587000	22.606824	0.000466	20.636706
233.061059	-2.997100	3.836900	-11.499000	22.597577	0.000466	20.644989
234.057568	-3.004600	3.837000	-11.528000	22.617681	0.000467	20.637150
235.057389	-2.985100	3.837200	-11.453000	22.626024	0.000468	20.636971
236.060723	-3.014700	3.836100	-11.564000	22.623577	0.000470	20.630251
237.057288	-3.012900	3.835600	-11.555000	22.622582	0.000467	20.640636
238.063278	-2.988300	3.836400	-11.463000	22.649852	0.000470	20.634758
239.062009	-2.965900	3.837300	-11.380000	22.654930	0.000469	20.631783
240.057975	-3.006300	3.837200	-11.534000	22.670675	0.000468	20.635227
241.062032	-3.008000	3.836400	-11.539000	22.674039	0.000470	20.658988
242.066067	-3.020800	3.834600	-11.583000	22.672334	0.000470	20.625982
243.058795	-2.981200	3.836500	-11.436000	22.672009	0.000469	20.611429
244.057328	-3.026800	3.835200	-11.607000	22.660070	0.000470	20.627922
245.061141	-3.013100	3.834800	-11.554000	22.637471	0.000471	20.631840
246.060475	-3.021000	3.833300	-11.579000	22.653511	0.000471	20.646011
247.060837	-3.019900	3.834800	-11.580000	22.663078	0.000472	20.631884
248.062109	-3.012400	3.832600	-11.544000	22.709984	0.000470	20.621019
249.060065	-2.993000	3.833800	-11.474000	22.727940	0.000472	20.640431
250.062953	-3.018000	3.833100	-11.567000	22.701858	0.000473	20.616198
251.057056	-3.006300	3.833600	-11.524000	22.711065	0.000475	20.605030
252.060742	-3.006500	3.833000	-11.523000	22.747140	0.000473	20.609398
253.059317	-3.009300	3.832700	-11.533000	22.764549	0.000474	20.625891
254.057081	-3.002000	3.832300	-11.504000	22.779215	0.000473	20.634895
255.058619	-2.995800	3.833100	-11.482000	22.745830	0.000473	20.646498
256.056723	-3.012200	3.832400	-11.543000	22.733827	0.000474	20.618350
257.062850	-3.007900	3.831400	-11.524000	22.727463	0.000474	20.624303
258.058438	-3.014000	3.831300	-11.547000	22.749981	0.000475	20.650657
259.065914	-3.001200	3.832600	-11.501000	22.737203	0.000477	20.644968
260.059314	-3.009400	3.831500	-11.528000	22.757379	0.000476	20.610172
261.062297	-3.022200	3.831000	-11.577000	22.757519	0.000475	20.625488
262.065331	-3.003300	3.832400	-11.509000	22.760361	0.000475	20.624067
263.061076	-2.993500	3.830900	-11.467000	22.764761	0.000474	20.618991
264.073262	-2.990600	3.831200	-11.457000	22.777290	0.000478	20.629647
265.068913	-2.979900	3.830100	-11.412000	22.777684	0.000478	20.618659
266.065320	-3.001200	3.830000	-11.493000	22.776486	0.000477	20.612243
267.063617	-2.989800	3.830700	-11.452000	22.793437	0.000478	20.619742
268.069214	-2.988500	3.829900	-11.445000	22.829338	0.000476	20.618722
269.063539	-2.967300	3.830700	-11.366000	22.848982	0.000479	20.629394
270.065938	-2.977900	3.829700	-11.404000	22.855855	0.000480	20.617785
271.063989	-2.986000	3.829300	-11.434000	22.859488	0.000479	20.601034
272.063775	-2.993400	3.828900	-11.461000	22.871968	0.000479	20.622548
