LabVIEW Measurement	
Writer_Version	2
Reader_Version	2
Separator	Tab
Decimal_Separator	.
Multi_Headings	No
X_Columns	One
Time_Pref	Absolute
Operator	admin
Description	Clolumns are: time, Current, Voltage, Power, Battery Temp, and Chamber Temp
Date	2024/08/16
Time	13:07:17.8513970375061035156
***End_of_Header***	
	
Channels	6						
Samples	1	1	1	1	1	1	
Date	2024/09/12	2024/09/12	2024/09/12	2024/09/12	2024/09/12	2024/09/12	
Time	07:53:51.0577750205993652344	07:53:51.0636272430419921875	07:53:51.0685110092163085938	07:53:51.0407662391662597656	07:53:51.0407662391662597656	07:53:51.0407662391662597656	
X_Dimension	Time	Time	Time	Time	Time	Time	
X0	0.0000000000000000E+0	0.0000000000000000E+0	0.0000000000000000E+0	0.0000000000000000E+0	0.0000000000000000E+0	0.0000000000000000E+0	
Delta_X	1.000000	1.000000	1.000000	1.000000	1.000000	1.000000	
***End_of_Header***							
X_Value	Untitled	Untitled 1	Untitled 2	Untitled 3	Untitled 4	Untitled 5	Comment
0.000000	0.031252	4.092200	0.127900	20.673160	0.000456	20.687861
0.998543	-2.984700	3.921800	-11.705000	20.683109	0.000455	20.668409
1.999891	-3.000100	3.913400	-11.740000	20.685040	0.000453	20.687885
3.000583	-3.004000	3.911400	-11.749000	20.692652	0.000455	20.687910
4.000530	-3.014200	3.907200	-11.776000	20.694959	0.000451	20.680733
5.002414	-3.012400	3.903800	-11.759000	20.684967	0.000453	20.676431
5.999802	-3.005400	3.902300	-11.727000	20.692153	0.000452	20.681246
7.000050	-3.011200	3.898400	-11.738000	20.709830	0.000451	20.664307
8.000598	-3.007000	3.896200	-11.715000	20.715945	0.000449	20.691287
9.001764	-3.027300	3.894700	-11.789000	20.731276	0.000451	20.672001
10.001167	-3.000700	3.892600	-11.680000	20.735494	0.000449	20.697559
11.004311	-3.009900	3.892200	-11.713000	20.723591	0.000449	20.713159
12.001350	-3.003600	3.890300	-11.685000	20.746654	0.000446	20.676949
13.003285	-3.000700	3.888500	-11.668000	20.746908	0.000449	20.665348
14.003553	-2.987500	3.887500	-11.613000	20.755223	0.000449	20.681725
15.002618	-2.990000	3.887800	-11.624000	20.784499	0.000447	20.673541
16.004805	-2.999400	3.887700	-11.660000	20.768656	0.000448	20.689942
17.002175	-2.993200	3.885000	-11.627000	20.788718	0.000445	20.664956
18.002592	-3.038900	3.883000	-11.799000	20.792643	0.000445	20.671253
19.002539	-3.007300	3.882100	-11.673000	20.803133	0.000443	20.683641
20.003366	-2.995300	3.881900	-11.626000	20.805914	0.000445	20.673144
21.004758	-3.001300	3.881700	-11.649000	20.823262	0.000445	20.680536
22.005761	-3.009700	3.880200	-11.677000	20.848987	0.000443	20.680658
23.002645	-2.993300	3.879900	-11.612000	20.841860	0.000444	20.695344
24.003283	-2.983900	3.880300	-11.578000	20.836015	0.000443	20.695187
25.004554	-3.018000	3.878400	-11.704000	20.837505	0.000442	20.690513
26.002698	-3.000400	3.878100	-11.634000	20.853919	0.000441	20.688436
27.008790	-2.991400	3.878800	-11.603000	20.850805	0.000443	20.668725
28.002869	-2.999100	3.876700	-11.626000	20.875469	0.000440	20.696712
29.004097	-3.014000	3.876900	-11.684000	20.887723	0.000440	20.685732
30.003292	-3.010100	3.875100	-11.663000	20.886007	0.000442	20.678326
31.002298	-3.024800	3.875500	-11.722000	20.878519	0.000440	20.695969
32.004448	-3.010400	3.875300	-11.666000	20.908217	0.000439	20.684417
33.002707	-3.027800	3.875200	-11.733000	20.915397	0.000440	20.682588
34.003777	-2.995500	3.874900	-11.607000	20.921404	0.000441	20.677690
35.003767	-3.018300	3.874000	-11.691000	20.925935	0.000439	20.689334
36.003527	-3.014500	3.873700	-11.677000	20.944703	0.000439	20.687242
37.004312	-2.999300	3.873100	-11.616000	20.940338	0.000440	20.694257
38.009066	-2.999100	3.873200	-11.614000	20.950270	0.000439	20.682378
39.007757	-3.000600	3.873300	-11.621000	20.956433	0.000440	20.682378
40.008714	-3.014300	3.872700	-11.672000	20.980186	0.000438	20.691911
41.010129	-2.977700	3.873000	-11.531000	20.974213	0.000438	20.685936
42.009367	-2.988300	3.872200	-11.570000	21.000825	0.000439	20.718719
43.011694	-2.999400	3.870500	-11.608000	21.006016	0.000437	20.694511
44.009759	-2.997000	3.869700	-11.597000	21.009539	0.000438	20.703726
45.011300	-3.006400	3.870400	-11.634000	21.028756	0.000439	20.691651
46.011260	-3.016000	3.869200	-11.669000	21.037993	0.000440	20.688561
47.010699	-3.005900	3.868800	-11.628000	21.045030	0.000437	20.697498
48.014584	-3.020100	3.867900	-11.680000	21.042724	0.000440	20.703726
49.014317	-3.013100	3.869000	-11.657000	21.060346	0.000437	20.695748
50.011849	-2.994100	3.868700	-11.582000	21.071249	0.000436	20.713767
51.013646	-3.012100	3.869000	-11.653000	21.094902	0.000436	20.706605
52.013258	-3.019200	3.867800	-11.676000	21.082186	0.000435	20.709059
53.013019	-3.003800	3.867200	-11.614000	21.113365	0.000437	20.687613
54.016544	-2.997700	3.868400	-11.596000	21.112334	0.000436	20.706498
55.013257	-2.989800	3.868600	-11.565000	21.118907	0.000435	20.692208
56.013668	-2.972400	3.868800	-11.499000	21.137222	0.000437	20.692511
57.016482	-2.986400	3.867700	-11.550000	21.132384	0.000436	20.693362
58.014198	-3.006300	3.865700	-11.621000	21.137149	0.000435	20.690541
59.017555	-3.006200	3.865700	-11.620000	21.154507	0.000435	20.690360
60.015048	-3.005200	3.866100	-11.618000	21.160058	0.000436	20.698285
61.014512	-2.981000	3.867200	-11.527000	21.168883	0.000436	20.712330
62.014102	-2.971500	3.865500	-11.485000	21.183210	0.000435	20.700108
63.015734	-3.003300	3.866500	-11.610000	21.194088	0.000435	20.703403
64.018997	-3.011500	3.866100	-11.642000	21.199482	0.000435	20.688410
65.018492	-2.975300	3.866800	-11.504000	21.210154	0.000433	20.693396
66.015971	-2.990500	3.864300	-11.555000	21.217567	0.000438	20.705554
67.017068	-3.003300	3.863900	-11.603000	21.221261	0.000435	20.693601
68.020956	-3.016900	3.864900	-11.659000	21.227530	0.000435	20.708883
69.015200	-3.019800	3.864100	-11.668000	21.236438	0.000436	20.704992
70.018744	-3.015300	3.864000	-11.650000	21.248517	0.000437	20.705695
71.016628	-3.011600	3.863000	-11.632000	21.252431	0.000436	20.704395
72.016770	-3.004000	3.863500	-11.605000	21.286473	0.000437	20.714270
73.015802	-3.002800	3.862900	-11.598000	21.271995	0.000436	20.713537
74.016542	-2.998100	3.863400	-11.582000	21.296084	0.000436	20.696857
75.018831	-3.000700	3.863700	-11.592000	21.301478	0.000437	20.719799
76.017519	-2.996200	3.863400	-11.574000	21.319937	0.000438	20.717403
77.017346	-3.005600	3.862900	-11.610000	21.307092	0.000437	20.688429
78.017869	-3.011500	3.861400	-11.627000	21.312853	0.000438	20.692296
79.018099	-3.006200	3.862000	-11.610000	21.335797	0.000437	20.700553
80.016644	-2.992300	3.862900	-11.558000	21.339598	0.000438	20.736126
81.018939	-3.009800	3.862900	-11.625000	21.333960	0.000439	20.718156
82.017523	-2.996800	3.862500	-11.574000	21.358873	0.000437	20.723167
83.016971	-2.981500	3.862300	-11.515000	21.357974	0.000437	20.710887
84.018928	-2.995500	3.861500	-11.566000	21.386956	0.000437	20.706218
85.017815	-2.982100	3.862800	-11.518000	21.401902	0.000437	20.723543
86.024389	-3.033900	3.861000	-11.713000	21.403216	0.000437	20.706365
87.017871	-3.002200	3.861200	-11.590000	21.413984	0.000436	20.715243
88.019736	-3.017000	3.860000	-11.645000	21.394857	0.000435	20.694207
89.024759	-3.014100	3.860300	-11.634000	21.414433	0.000435	20.726125
90.021843	-2.992300	3.861100	-11.553000	21.421117	0.000437	20.725225
91.022382	-3.007400	3.860100	-11.608000	21.430365	0.000438	20.729737
92.026844	-2.998100	3.860800	-11.575000	21.450186	0.000437	20.701677
93.022175	-3.001000	3.859900	-11.583000	21.449565	0.000439	20.720972
94.023232	-3.013000	3.860300	-11.630000	21.446126	0.000439	20.709470
95.025575	-2.989100	3.859500	-11.536000	21.476747	0.000438	20.713082
96.023636	-3.006000	3.859500	-11.600000	21.483685	0.000437	20.733301
97.028184	-2.997100	3.860900	-11.571000	21.484476	0.000439	20.730774
98.022326	-3.012000	3.858900	-11.622000	21.512908	0.000441	20.731722
99.027740	-3.029400	3.857200	-11.684000	21.525311	0.000438	20.726115
100.026184	-3.005400	3.858500	-11.596000	21.551290	0.000438	20.741680
101.025916	-2.998800	3.859100	-11.571000	21.526494	0.000440	20.729195
102.028445	-3.010200	3.859400	-11.616000	21.524510	0.000438	20.745703
103.025119	-3.021100	3.857600	-11.653000	21.555921	0.000440	20.723080
104.027019	-2.990600	3.858300	-11.539000	21.554910	0.000441	20.730603
105.027919	-3.015600	3.857200	-11.631000	21.576027	0.000441	20.763115
106.027745	-3.015700	3.856800	-11.630000	21.580971	0.000441	20.732974
107.031700	-2.997100	3.858400	-11.563000	21.599450	0.000440	20.731077
108.027767	-3.016300	3.857100	-11.632000	21.589949	0.000440	20.741959
109.026983	-3.023100	3.857300	-11.659000	21.584737	0.000441	20.741010
110.027693	-3.007000	3.857400	-11.599000	21.599343	0.000442	20.721960
111.027684	-2.993500	3.858900	-11.551000	21.604374	0.000441	20.729366
112.028879	-2.994800	3.858000	-11.553000	21.614236	0.000441	20.733546
113.032186	-2.977700	3.857700	-11.486000	21.638342	0.000441	20.745342
114.029659	-3.009400	3.856000	-11.603000	21.660269	0.000442	20.732196
115.030823	-2.981800	3.857300	-11.501000	21.650236	0.000442	20.725001
116.035822	-2.982700	3.858200	-11.507000	21.680584	0.000442	20.755372
117.030470	-2.992200	3.856800	-11.539000	21.694480	0.000442	20.735613
118.032707	-3.002600	3.857000	-11.580000	21.701797	0.000442	20.711166
119.031897	-2.998300	3.857200	-11.564000	21.709329	0.000442	20.737672
120.034788	-3.006400	3.855300	-11.589000	21.705929	0.000444	20.739485
121.030916	-3.013200	3.857500	-11.622000	21.731449	0.000443	20.756492
122.033051	-3.004100	3.854500	-11.579000	21.716377	0.000443	20.750416
123.031726	-3.008500	3.854700	-11.596000	21.722707	0.000445	20.766235
124.035994	-2.995800	3.855000	-11.547000	21.714536	0.000443	20.731029
125.033022	-2.983200	3.855700	-11.501000	21.750757	0.000445	20.763487
126.034037	-3.007300	3.854900	-11.592000	21.760330	0.000446	20.747464
127.037027	-2.993100	3.854600	-11.535000	21.752569	0.000443	20.741593
128.033154	-3.000500	3.854600	-11.565000	21.768750	0.000447	20.762530
129.043324	-2.997900	3.855400	-11.557000	21.785976	0.000446	20.744208
130.034389	-3.004100	3.854600	-11.579000	21.808159	0.000445	20.765937
131.034165	-3.008300	3.853600	-11.591000	21.815495	0.000446	20.744829
132.035216	-2.998000	3.853100	-11.550000	21.820413	0.000445	20.772037
133.035100	-3.008700	3.853500	-11.594000	21.834068	0.000446	20.764368
134.039511	-2.984900	3.854000	-11.503000	21.821336	0.000445	20.749727
135.037781	-3.027000	3.852400	-11.660000	21.862418	0.000446	20.742008
136.039194	-2.988400	3.855200	-11.520000	21.860767	0.000445	20.752210
137.039002	-2.979600	3.853700	-11.482000	21.845012	0.000447	20.749717
138.039655	-3.021600	3.851900	-11.636000	21.851620	0.000448	20.762970
139.039487	-2.983300	3.852700	-11.494000	21.871042	0.000445	20.769608
140.044216	-2.982500	3.852500	-11.489000	21.875428	0.000448	20.750764
141.039309	-2.983000	3.853600	-11.494000	21.892735	0.000447	20.770933
142.039515	-2.979600	3.852400	-11.477000	21.902283	0.000447	20.753462
143.040764	-3.005000	3.850500	-11.569000	21.896925	0.000447	20.756160
144.041169	-2.999500	3.852100	-11.554000	21.895709	0.000448	20.766797
145.042724	-2.992100	3.854100	-11.531000	21.914510	0.000450	20.751003
146.042397	-2.985100	3.851700	-11.497000	21.914232	0.000449	20.767320
147.043312	-3.012400	3.851300	-11.600000	21.939362	0.000452	20.770664
148.042878	-2.986000	3.851800	-11.501000	21.945896	0.000450	20.781946
149.045490	-3.009100	3.851100	-11.588000	21.963700	0.000450	20.778905
150.048540	-2.976300	3.851400	-11.462000	21.957689	0.000451	20.745860
151.046124	-2.993200	3.850400	-11.524000	21.975542	0.000452	20.771793
152.044601	-3.011500	3.850200	-11.592000	21.970078	0.000453	20.764426
153.044227	-3.005900	3.849900	-11.571000	21.964648	0.000452	20.789811
154.044474	-2.992900	3.850400	-11.523000	21.962460	0.000451	20.769129
155.043860	-2.999400	3.850500	-11.548000	21.994757	0.000450	20.770639
156.046020	-2.989700	3.850300	-11.511000	21.988951	0.000452	20.763405
157.042951	-2.999500	3.849300	-11.546000	21.977119	0.000453	20.773846
158.043530	-2.996200	3.849900	-11.533000	21.996881	0.000453	20.759963
159.043417	-3.005000	3.848500	-11.564000	22.003063	0.000453	20.784644
160.044254	-2.992900	3.849300	-11.520000	22.021765	0.000453	20.775391
161.049985	-2.989300	3.849500	-11.506000	22.026346	0.000454	20.787562
162.046458	-3.016400	3.849700	-11.610000	22.040277	0.000454	20.781594
163.044148	-3.010300	3.849300	-11.587000	22.055629	0.000454	20.765194
164.044327	-3.001500	3.848400	-11.550000	22.062293	0.000453	20.785617
165.044107	-3.009400	3.849000	-11.582000	22.088602	0.000455	20.765487
166.045678	-2.981200	3.849500	-11.475000	22.080092	0.000456	20.781624
167.049346	-3.027600	3.848100	-11.648000	22.082191	0.000453	20.760966
168.045441	-2.989400	3.848300	-11.503000	22.097322	0.000455	20.783227
169.045025	-2.985200	3.847900	-11.485000	22.105862	0.000456	20.779923
170.049821	-2.996800	3.847100	-11.528000	22.120652	0.000456	20.778607
171.046246	-2.988400	3.848600	-11.500000	22.119983	0.000458	20.795007
172.048203	-2.977000	3.848600	-11.457000	22.144200	0.000457	20.780372
173.046010	-2.998400	3.847500	-11.536000	22.147637	0.000456	20.782391
174.045223	-3.002600	3.846700	-11.550000	22.158350	0.000458	20.786952
175.044976	-3.010500	3.845900	-11.577000	22.154692	0.000458	20.804628
176.045234	-3.028000	3.846300	-11.645000	22.178641	0.000459	20.803948
177.048255	-2.988500	3.846800	-11.495000	22.194513	0.000460	20.781907
178.046534	-2.994700	3.844500	-11.512000	22.185329	0.000457	20.778876
179.047158	-3.007800	3.845500	-11.566000	22.195377	0.000460	20.789411
180.047203	-3.004900	3.846300	-11.557000	22.206596	0.000458	20.798273
181.046976	-2.989300	3.846700	-11.498000	22.211781	0.000460	20.795404
182.047494	-3.016600	3.845100	-11.598000	22.229777	0.000460	20.802042
183.049711	-2.991400	3.845300	-11.501000	22.244506	0.000461	20.789763
184.048524	-3.006700	3.844700	-11.558000	22.246073	0.000461	20.802712
185.048264	-3.026900	3.844200	-11.636000	22.249452	0.000460	20.799931
186.048259	-2.976400	3.844400	-11.441000	22.248661	0.000462	20.783017
187.048119	-2.978000	3.844500	-11.448000	22.271098	0.000461	20.803113
188.048605	-2.982900	3.845500	-11.470000	22.293672	0.000461	20.794422
189.060153	-2.989500	3.845100	-11.494000	22.296889	0.000462	20.805229
190.048979	-2.991000	3.843600	-11.495000	22.284641	0.000462	20.804345
191.049697	-2.985100	3.844300	-11.475000	22.303411	0.000462	20.808441
192.050655	-3.011900	3.845100	-11.580000	22.327693	0.000463	20.812840
193.049216	-2.991000	3.845100	-11.499000	22.339989	0.000463	20.800497
194.053668	-2.998500	3.842700	-11.521000	22.325882	0.000464	20.796802
195.051591	-2.994200	3.843300	-11.507000	22.339809	0.000461	20.795575
196.052876	-2.997000	3.842700	-11.516000	22.338984	0.000463	20.811344
197.054417	-2.995000	3.842700	-11.508000	22.312974	0.000467	20.804740
198.053535	-2.983200	3.842300	-11.462000	22.338510	0.000465	20.787163
199.058057	-3.019400	3.842100	-11.600000	22.363191	0.000465	20.795282
200.054211	-3.004600	3.841900	-11.541000	22.337197	0.000466	20.823779
201.054750	-2.987200	3.842800	-11.478000	22.368317	0.000465	20.811320
202.054760	-2.974500	3.842500	-11.429000	22.373291	0.000466	20.803499
203.055864	-2.997800	3.841700	-11.516000	22.414100	0.000466	20.793155
204.056596	-2.994300	3.842600	-11.505000	22.414778	0.000466	20.787671
205.057098	-2.997600	3.841600	-11.514000	22.430730	0.000466	20.820240
206.054563	-2.996500	3.839700	-11.504000	22.427596	0.000468	20.795765
207.056861	-2.981700	3.841400	-11.452000	22.410795	0.000467	20.792691
208.062814	-2.998200	3.840200	-11.513000	22.439589	0.000468	20.800189
209.059003	-2.980400	3.841600	-11.449000	22.456175	0.000467	20.789773
210.061172	-2.983800	3.841000	-11.459000	22.442894	0.000466	20.778368
211.058452	-2.990700	3.839300	-11.481000	22.436021	0.000467	20.807996
212.058626	-3.013600	3.838600	-11.567000	22.440585	0.000468	20.803557
213.059285	-2.984100	3.839000	-11.455000	22.443279	0.000469	20.783496
214.062566	-3.004300	3.839100	-11.533000	22.443850	0.000469	20.779800
215.063515	-2.989900	3.838900	-11.477000	22.474748	0.000469	20.767120
216.060719	-2.986500	3.838800	-11.464000	22.455892	0.000468	20.785695
217.060532	-3.010900	3.837400	-11.553000	22.460192	0.000470	20.779097
218.060783	-2.983900	3.839200	-11.455000	22.479067	0.000470	20.796577
219.060527	-2.997900	3.837800	-11.504000	22.509588	0.000470	20.762183
220.058978	-2.992400	3.838200	-11.484000	22.514298	0.000472	20.767848
221.062194	-2.983600	3.837900	-11.450000	22.501769	0.000472	20.778060
222.062335	-3.011900	3.838700	-11.561000	22.519906	0.000474	20.749757
223.061770	-3.007200	3.838800	-11.542000	22.523074	0.000473	20.772370
224.061562	-3.008700	3.836900	-11.543000	22.511223	0.000473	20.780890
225.061627	-3.012300	3.837300	-11.557000	22.514927	0.000475	20.774169
226.064561	-2.983300	3.837900	-11.449000	22.542323	0.000471	20.763673
227.062283	-2.998400	3.836800	-11.503000	22.533923	0.000474	20.759054
228.063532	-2.998500	3.836400	-11.503000	22.543685	0.000473	20.788746
229.063111	-3.004400	3.836100	-11.524000	22.558615	0.000474	20.765766
230.062944	-3.026600	3.835300	-11.607000	22.576776	0.000475	20.781584
231.063987	-3.018000	3.835900	-11.576000	22.563979	0.000477	20.785363
232.064220	-3.015100	3.834700	-11.561000	22.578669	0.000475	20.761195
233.063508	-3.001500	3.835400	-11.511000	22.583047	0.000475	20.763209
234.063325	-3.023900	3.835300	-11.597000	22.601861	0.000474	20.759767
235.064617	-3.010600	3.833900	-11.542000	22.633350	0.000476	20.763805
236.064877	-2.982800	3.835700	-11.440000	22.612447	0.000475	20.781750
237.065410	-2.996100	3.834900	-11.489000	22.624365	0.000474	20.777092
238.065072	-3.002600	3.834100	-11.512000	22.627049	0.000476	20.752753
239.065068	-2.990300	3.834900	-11.465000	22.614765	0.000476	20.751829
240.067811	-3.009500	3.832700	-11.533000	22.622740	0.000475	20.755549
241.066081	-2.994200	3.834500	-11.480000	22.644428	0.000478	20.763996
242.065953	-2.995000	3.833500	-11.480000	22.648288	0.000478	20.763595
243.066297	-3.015100	3.832300	-11.554000	22.656165	0.000477	20.768165
244.068049	-2.977300	3.835900	-11.419000	22.675656	0.000480	20.745014
245.065180	-3.004200	3.833100	-11.514000	22.669151	0.000478	20.767896
246.064919	-2.998400	3.833300	-11.493000	22.656965	0.000478	20.755690
247.068040	-3.001100	3.833300	-11.504000	22.652109	0.000479	20.762206
248.070750	-3.006500	3.833200	-11.524000	22.647785	0.000478	20.772100
249.066276	-2.985100	3.833900	-11.444000	22.669961	0.000480	20.765863
250.067670	-3.005000	3.832400	-11.516000	22.697963	0.000480	20.746969
251.075641	-2.977600	3.833100	-11.412000	22.714940	0.000482	20.748802
252.068846	-2.992300	3.831800	-11.465000	22.725076	0.000480	20.758481
253.073210	-3.012800	3.831100	-11.542000	22.755282	0.000481	20.743220
254.069850	-3.021000	3.830500	-11.571000	22.739408	0.000482	20.735853
255.069747	-3.008200	3.831500	-11.524000	22.756034	0.000481	20.739231
256.068980	-2.998800	3.830200	-11.485000	22.766872	0.000483	20.740604
257.070170	-2.980600	3.831400	-11.420000	22.772381	0.000480	20.773151
258.072548	-3.015200	3.830100	-11.548000	22.771605	0.000485	20.752459
259.070448	-3.026200	3.829500	-11.588000	22.757952	0.000482	20.760119
260.070809	-3.000400	3.829900	-11.490000	22.772952	0.000485	20.752859
261.070952	-2.987400	3.829700	-11.439000	22.751823	0.000483	20.722683
262.071256	-2.992900	3.829400	-11.460000	22.768790	0.000485	20.751535
263.070172	-3.000900	3.830000	-11.491000	22.761470	0.000482	20.746573
264.071301	-3.009500	3.828300	-11.521000	22.756727	0.000484	20.733286
265.070795	-2.987000	3.828700	-11.435000	22.768668	0.000485	20.753783
266.069547	-2.981400	3.828900	-11.413000	22.781218	0.000485	20.739803
267.071407	-3.000100	3.829500	-11.488000	22.791739	0.000485	20.742281
268.071190	-3.012300	3.826800	-11.527000	22.808134	0.000486	20.748274
269.073492	-2.997100	3.828500	-11.473000	22.808876	0.000486	20.744749
270.070746	-2.990000	3.826700	-11.440000	22.814892	0.000485	20.747932
271.070835	-2.999100	3.827500	-11.478000	22.829589	0.000487	20.745585
272.070515	-3.011000	3.826400	-11.520000	22.868727	0.000487	20.757767
