LabVIEW Measurement	
Writer_Version	2
Reader_Version	2
Separator	Tab
Decimal_Separator	.
Multi_Headings	No
X_Columns	One
Time_Pref	Absolute
Operator	admin
Description	Clolumns are: time, Current, Voltage, Power, Battery Temp, and Chamber Temp
Date	2024/08/16
Time	13:07:17.8513970375061035156
***End_of_Header***	
	
Channels	6						
Samples	1	1	1	1	1	1	
Date	2024/09/11	2024/09/11	2024/09/11	2024/09/11	2024/09/11	2024/09/11	
Time	02:05:29.2513232231140136719	02:05:29.2603178024291992188	02:05:29.2682967185974121094	02:05:29.2320914268493652344	02:05:29.2320914268493652344	02:05:29.2320914268493652344	
X_Dimension	Time	Time	Time	Time	Time	Time	
X0	0.0000000000000000E+0	0.0000000000000000E+0	0.0000000000000000E+0	0.0000000000000000E+0	0.0000000000000000E+0	0.0000000000000000E+0	
Delta_X	1.000000	1.000000	1.000000	1.000000	1.000000	1.000000	
***End_of_Header***							
X_Value	Untitled	Untitled 1	Untitled 2	Untitled 3	Untitled 4	Untitled 5	Comment
0.000000	-0.000796	4.085200	-0.003118	20.850703	0.000449	20.796176
1.003030	-3.012500	3.918400	-11.804000	20.863610	0.000451	20.845593
2.003979	-2.993000	3.912000	-11.708000	20.847015	0.000450	20.832791
3.001975	-2.999300	3.908300	-11.721000	20.862507	0.000448	20.838800
4.001244	-3.033200	3.904600	-11.842000	20.869341	0.000450	20.823350
5.001464	-3.014900	3.901900	-11.762000	20.879502	0.000447	20.836356
5.999578	-3.018200	3.899300	-11.768000	20.871491	0.000447	20.848733
6.999788	-3.030000	3.896200	-11.804000	20.882526	0.000446	20.825156
8.011922	-3.007600	3.895600	-11.715000	20.890357	0.000445	20.832514
9.003374	-3.008100	3.893300	-11.710000	20.881651	0.000444	20.830919
10.004489	-2.962800	3.893900	-11.536000	20.884496	0.000443	20.857471
11.008064	-2.995900	3.890200	-11.654000	20.921118	0.000443	20.813017
12.007701	-2.980100	3.889600	-11.591000	20.924943	0.000443	20.831541
13.004540	-2.994600	3.888300	-11.643000	20.916711	0.000444	20.860291
14.006843	-3.002900	3.887200	-11.672000	20.918755	0.000443	20.835783
15.006152	-3.007400	3.885300	-11.684000	20.945614	0.000442	20.853162
16.002363	-3.002600	3.886300	-11.668000	20.941789	0.000442	20.828001
17.002954	-2.989400	3.885100	-11.613000	20.960303	0.000442	20.846991
18.006136	-3.011700	3.884200	-11.696000	20.975572	0.000442	20.854201
19.005250	-2.978900	3.883600	-11.568000	20.970789	0.000439	20.830927
20.008655	-3.009800	3.881300	-11.681000	20.992916	0.000441	20.860168
21.006798	-3.004000	3.880000	-11.654000	21.007441	0.000439	20.847669
22.012227	-2.993500	3.880500	-11.615000	21.013129	0.000439	20.841031
23.007810	-3.025000	3.878700	-11.732000	20.997281	0.000439	20.838930
24.009953	-3.009300	3.878000	-11.670000	21.009035	0.000438	20.840255
25.008252	-3.014400	3.876400	-11.684000	21.039382	0.000441	20.851641
26.010642	-2.970600	3.878200	-11.520000	21.036260	0.000440	20.856579
27.011330	-2.971800	3.877400	-11.522000	21.013962	0.000436	20.839019
28.008298	-3.018900	3.875100	-11.698000	21.042725	0.000435	20.822743
29.012955	-2.995700	3.876200	-11.610000	21.052484	0.000437	20.848624
30.010998	-3.010000	3.877100	-11.669000	21.056104	0.000437	20.856513
31.008458	-3.005600	3.875300	-11.646000	21.052361	0.000434	20.851821
32.011655	-3.019500	3.874600	-11.698000	21.072050	0.000437	20.879573
33.014793	-2.991000	3.875500	-11.590000	21.087170	0.000435	20.858662
34.008741	-3.004900	3.875300	-11.644000	21.074975	0.000436	20.860689
35.007410	-2.991100	3.873700	-11.585000	21.113698	0.000435	20.870498
36.011704	-2.997400	3.873000	-11.608000	21.120538	0.000432	20.865487
37.014084	-3.007700	3.872600	-11.646000	21.117129	0.000436	20.845482
38.014904	-3.011400	3.872400	-11.660000	21.126251	0.000437	20.846072
39.012425	-3.009500	3.872500	-11.653000	21.153628	0.000436	20.850698
40.023415	-3.024000	3.871400	-11.706000	21.129405	0.000434	20.860131
41.017066	-2.992800	3.871800	-11.585000	21.164833	0.000435	20.860008
42.024881	-2.992000	3.870500	-11.579000	21.167480	0.000432	20.846062
43.019842	-3.004600	3.870100	-11.628000	21.167055	0.000432	20.854172
44.013738	-2.989200	3.871700	-11.572000	21.179362	0.000435	20.855103
45.022082	-2.980600	3.870300	-11.534000	21.215786	0.000432	20.875890
46.017560	-3.008700	3.868500	-11.638000	21.202578	0.000432	20.873584
47.015197	-3.001200	3.869700	-11.612000	21.202922	0.000435	20.845006
48.016461	-2.992500	3.868900	-11.577000	21.199015	0.000433	20.860537
49.027597	-2.995200	3.870300	-11.590000	21.205773	0.000432	20.856867
50.016700	-3.004800	3.869800	-11.627000	21.241248	0.000432	20.857741
51.024331	-2.995200	3.868300	-11.585000	21.265518	0.000432	20.874908
52.018821	-2.991900	3.868400	-11.572000	21.230599	0.000432	20.867477
53.022308	-3.003600	3.867700	-11.616000	21.264104	0.000434	20.867803
54.019871	-2.995700	3.867400	-11.584000	21.277930	0.000433	20.868359
55.023197	-2.994300	3.867200	-11.579000	21.274097	0.000434	20.852197
56.024705	-2.977400	3.867100	-11.513000	21.274219	0.000432	20.858957
57.020863	-2.991400	3.866700	-11.566000	21.302983	0.000435	20.835577
58.023097	-3.014400	3.866300	-11.653000	21.316924	0.000431	20.844308
59.024915	-2.999800	3.866600	-11.598000	21.299118	0.000434	20.849254
60.022734	-2.998000	3.866000	-11.589000	21.334116	0.000434	20.855818
61.022528	-2.979400	3.867000	-11.520000	21.336959	0.000436	20.852499
62.026132	-2.986800	3.866300	-11.546000	21.346283	0.000433	20.850922
63.024463	-2.992800	3.866800	-11.571000	21.346912	0.000434	20.844439
64.028437	-2.998300	3.866500	-11.592000	21.351005	0.000434	20.851853
65.026596	-2.995200	3.865500	-11.577000	21.360484	0.000432	20.835258
66.026325	-3.013000	3.863900	-11.641000	21.376369	0.000436	20.838348
67.030811	-2.986700	3.865100	-11.543000	21.402017	0.000433	20.852155
68.027928	-2.993900	3.864100	-11.567000	21.368941	0.000434	20.856994
69.029994	-2.996400	3.864100	-11.578000	21.392637	0.000435	20.832814
70.024465	-3.005300	3.863300	-11.610000	21.415735	0.000435	20.847389
71.029003	-3.008600	3.862700	-11.620000	21.401297	0.000435	20.850487
72.030953	-2.990500	3.864000	-11.555000	21.435305	0.000433	20.839943
73.028520	-3.027700	3.862400	-11.692000	21.439275	0.000435	20.833010
74.030903	-3.002000	3.863900	-11.598000	21.437151	0.000434	20.843213
75.032254	-3.007200	3.862500	-11.614000	21.460846	0.000434	20.827092
76.027059	-3.004600	3.862500	-11.604000	21.455739	0.000436	20.842844
77.028287	-3.012200	3.863100	-11.636000	21.488510	0.000434	20.816366
78.030878	-3.017000	3.861500	-11.649000	21.483297	0.000436	20.818737
79.027038	-3.014900	3.861400	-11.641000	21.488934	0.000436	20.840972
80.027701	-3.019500	3.861900	-11.659000	21.506738	0.000435	20.833182
81.031910	-2.995100	3.861900	-11.566000	21.496263	0.000434	20.818435
82.035858	-2.974600	3.862400	-11.488000	21.517636	0.000438	20.833656
83.031249	-3.007700	3.860400	-11.610000	21.521329	0.000434	20.816489
84.027934	-2.978700	3.861400	-11.500000	21.544874	0.000436	20.832462
85.029702	-3.012100	3.860500	-11.628000	21.524720	0.000435	20.827468
86.031718	-2.985700	3.862300	-11.530000	21.547742	0.000437	20.812573
87.034656	-2.965700	3.861800	-11.452000	21.559809	0.000436	20.845510
88.036737	-2.986600	3.861100	-11.530000	21.575470	0.000437	20.815189
89.032619	-2.988200	3.861100	-11.536000	21.567292	0.000437	20.838773
90.029528	-2.998700	3.860600	-11.576000	21.585821	0.000437	20.841193
91.028247	-3.000300	3.860500	-11.582000	21.588369	0.000439	20.834735
92.038368	-2.987700	3.859800	-11.530000	21.596270	0.000436	20.838847
93.033978	-3.000500	3.860700	-11.582000	21.621831	0.000437	20.821754
94.030506	-2.994100	3.860200	-11.557000	21.610060	0.000439	20.811396
95.036230	-3.004400	3.859900	-11.595000	21.636414	0.000437	20.826863
96.030041	-2.989600	3.859600	-11.538000	21.665299	0.000440	20.818786
97.036969	-3.006700	3.860900	-11.608000	21.638464	0.000438	20.819432
98.033872	-3.010900	3.860300	-11.622000	21.654384	0.000437	20.805018
99.036905	-2.998600	3.858700	-11.570000	21.658788	0.000439	20.834081
100.031500	-3.014900	3.860200	-11.637000	21.665846	0.000439	20.811747
101.031878	-2.988700	3.860600	-11.537000	21.664940	0.000439	20.818427
102.034694	-3.000200	3.859100	-11.577000	21.683728	0.000440	20.818263
103.034982	-2.992100	3.859500	-11.547000	21.701577	0.000438	20.811470
104.037810	-2.995500	3.858300	-11.557000	21.713691	0.000439	20.813162
105.031326	-3.012300	3.858100	-11.620000	21.712628	0.000440	20.804512
106.036717	-3.018100	3.856700	-11.639000	21.725315	0.000440	20.813890
107.034026	-2.998200	3.856700	-11.563000	21.751495	0.000440	20.805952
108.034296	-2.985700	3.858900	-11.521000	21.752842	0.000438	20.812042
109.034118	-2.996800	3.858000	-11.560000	21.745157	0.000441	20.796290
110.035677	-2.993400	3.856800	-11.544000	21.752859	0.000440	20.786929
111.034714	-3.014900	3.856000	-11.625000	21.747525	0.000439	20.815256
112.031024	-2.995300	3.856400	-11.551000	21.766648	0.000438	20.810212
113.034781	-3.022300	3.856400	-11.654000	21.764082	0.000441	20.808593
114.034878	-3.020000	3.856300	-11.645000	21.771385	0.000441	20.819221
115.037542	-2.980900	3.856400	-11.495000	21.805267	0.000440	20.833216
116.034382	-2.990100	3.856200	-11.529000	21.814047	0.000441	20.816400
117.039746	-2.987300	3.854800	-11.514000	21.797311	0.000440	20.809133
118.037549	-2.998400	3.855700	-11.560000	21.813043	0.000442	20.801645
119.037707	-2.989000	3.856000	-11.524000	21.826430	0.000442	20.820260
120.042132	-3.017500	3.855200	-11.632000	21.820942	0.000443	20.818560
121.039008	-2.994800	3.857000	-11.550000	21.849773	0.000442	20.807588
122.039177	-2.994000	3.855400	-11.542000	21.834606	0.000443	20.798572
123.040174	-2.991900	3.856500	-11.537000	21.859338	0.000441	20.805308
124.038557	-2.989800	3.855800	-11.527000	21.870061	0.000444	20.804662
125.036796	-2.993500	3.855200	-11.539000	21.884518	0.000443	20.787838
126.044326	-2.988700	3.855200	-11.521000	21.883620	0.000443	20.799267
127.038630	-3.024400	3.853800	-11.654000	21.888308	0.000442	20.812968
128.040637	-3.004800	3.854300	-11.580000	21.906024	0.000445	20.786605
129.040848	-3.017700	3.854300	-11.630000	21.912835	0.000444	20.820923
130.038711	-3.013900	3.855200	-11.618000	21.927200	0.000446	20.812069
131.042453	-3.002300	3.853600	-11.569000	21.936944	0.000443	20.818029
132.040954	-3.013500	3.853800	-11.613000	21.917873	0.000445	20.813165
133.037185	-2.987800	3.854400	-11.515000	21.946164	0.000445	20.798336
134.038176	-3.006900	3.853700	-11.587000	21.974494	0.000444	20.816737
135.041721	-3.007700	3.851300	-11.583000	21.959231	0.000445	20.811416
136.043888	-3.014100	3.851500	-11.607000	21.956740	0.000446	20.825517
137.043038	-3.005300	3.853600	-11.580000	21.963691	0.000445	20.799284
138.045935	-3.008600	3.853300	-11.592000	21.988942	0.000446	20.803699
139.044986	-3.011700	3.851300	-11.597000	21.994307	0.000447	20.813811
140.043558	-2.987800	3.851700	-11.506000	21.999647	0.000447	20.804932
141.042807	-3.008600	3.851100	-11.585000	22.014478	0.000448	20.800812
142.046380	-3.002200	3.852500	-11.565000	22.026817	0.000448	20.781871
143.040423	-2.992300	3.851300	-11.523000	22.020309	0.000449	20.780571
144.042976	-2.996000	3.851700	-11.539000	22.026270	0.000450	20.809298
145.042138	-3.012600	3.851300	-11.602000	22.030852	0.000450	20.799186
146.045738	-3.003300	3.851800	-11.567000	22.050875	0.000448	20.784617
147.045190	-2.998600	3.851000	-11.547000	22.046335	0.000450	20.792875
148.044809	-3.012400	3.851000	-11.600000	22.078370	0.000448	20.805031
149.045639	-3.004600	3.851300	-11.571000	22.088881	0.000449	20.806544
150.045246	-2.990800	3.851300	-11.517000	22.107973	0.000450	20.794363
151.042636	-2.965200	3.851300	-11.419000	22.106135	0.000452	20.805325
152.042495	-2.993800	3.850400	-11.527000	22.093968	0.000453	20.781765
153.047399	-2.968400	3.850700	-11.430000	22.086382	0.000451	20.786025
154.042555	-2.992400	3.850800	-11.521000	22.095732	0.000452	20.780686
155.045344	-3.013600	3.849600	-11.600000	22.106306	0.000450	20.782738
156.049326	-2.990500	3.850500	-11.513000	22.125121	0.000453	20.808686
157.042597	-3.017500	3.849300	-11.614000	22.131260	0.000453	20.792548
158.046659	-2.988900	3.849100	-11.503000	22.168022	0.000449	20.798532
159.046774	-2.998300	3.848800	-11.539000	22.150622	0.000451	20.796759
160.047409	-2.980900	3.849000	-11.473000	22.154859	0.000452	20.802898
161.045177	-2.997300	3.849500	-11.537000	22.197057	0.000452	20.787774
162.052761	-2.992000	3.849000	-11.515000	22.189897	0.000452	20.774915
163.046266	-2.989000	3.850100	-11.507000	22.194118	0.000453	20.794314
164.050478	-2.988400	3.848500	-11.500000	22.178841	0.000455	20.788976
165.053762	-3.004200	3.848300	-11.561000	22.200944	0.000451	20.807787
166.049116	-3.001100	3.848800	-11.550000	22.188558	0.000453	20.796808
167.046010	-3.003400	3.848100	-11.556000	22.214636	0.000454	20.775028
168.047518	-2.997700	3.847000	-11.531000	22.229187	0.000455	20.785330
169.050179	-2.979400	3.848100	-11.465000	22.244007	0.000454	20.783099
170.048837	-2.999400	3.847800	-11.540000	22.230485	0.000456	20.790897
171.046801	-2.998000	3.847400	-11.534000	22.242937	0.000457	20.785821
172.048404	-2.994900	3.847000	-11.521000	22.224549	0.000456	20.798230
173.046935	-2.987100	3.846800	-11.489000	22.243295	0.000455	20.764368
174.048323	-3.008000	3.847200	-11.572000	22.266067	0.000459	20.790489
175.051603	-3.005400	3.846100	-11.559000	22.279481	0.000456	20.763617
176.049416	-2.976800	3.847400	-11.452000	22.272901	0.000457	20.781684
177.049745	-3.000300	3.845200	-11.536000	22.283343	0.000458	20.787398
178.054819	-2.994000	3.846400	-11.515000	22.293965	0.000458	20.782861
179.053758	-3.011600	3.846400	-11.581000	22.304628	0.000460	20.786900
180.064571	-3.006200	3.845500	-11.559000	22.284543	0.000459	20.790022
181.052552	-3.015700	3.844400	-11.593000	22.301737	0.000458	20.787799
182.055917	-2.986400	3.845600	-11.484000	22.315519	0.000458	20.781210
183.057992	-3.006400	3.845100	-11.558000	22.313576	0.000461	20.773100
184.065270	-3.004200	3.844000	-11.546000	22.332419	0.000460	20.793390
185.062730	-3.015600	3.843200	-11.588000	22.362201	0.000459	20.782436
186.055053	-2.997000	3.844600	-11.520000	22.358609	0.000461	20.766037
187.060912	-2.975800	3.844600	-11.440000	22.372316	0.000462	20.767434
188.059355	-3.008300	3.843500	-11.561000	22.388415	0.000463	20.771702
189.061366	-3.004200	3.842700	-11.542000	22.406064	0.000460	20.778945
190.057978	-3.016400	3.842000	-11.588000	22.407804	0.000461	20.776419
191.057788	-3.000300	3.842900	-11.529000	22.430352	0.000461	20.773395
192.059542	-2.994700	3.843200	-11.509000	22.442221	0.000463	20.776272
193.059835	-3.015000	3.843000	-11.586000	22.418220	0.000461	20.768832
194.061806	-3.008700	3.841400	-11.557000	22.444360	0.000461	20.776991
195.062178	-3.034400	3.840900	-11.653000	22.434400	0.000462	20.769388
196.061217	-3.001400	3.842000	-11.531000	22.409084	0.000464	20.749726
197.060863	-2.983200	3.841700	-11.459000	22.444286	0.000462	20.763641
198.067871	-2.990000	3.841700	-11.485000	22.438605	0.000463	20.762219
199.061761	-2.974300	3.843000	-11.429000	22.411027	0.000463	20.768267
200.062461	-3.020400	3.841700	-11.602000	22.424825	0.000464	20.774498
201.059781	-3.011000	3.839200	-11.558000	22.429012	0.000466	20.748819
202.064800	-3.013100	3.840600	-11.571000	22.409460	0.000465	20.773336
203.062376	-3.009400	3.840100	-11.556000	22.464196	0.000464	20.767933
204.061275	-2.998900	3.841000	-11.518000	22.464604	0.000466	20.775453
205.064943	-2.971500	3.840700	-11.411000	22.478636	0.000467	20.763902
206.064565	-2.979600	3.839700	-11.440000	22.507614	0.000466	20.768267
207.064392	-2.989400	3.840700	-11.481000	22.538935	0.000468	20.768341
208.067052	-2.982600	3.840900	-11.455000	22.529295	0.000467	20.785239
209.064273	-2.993400	3.838600	-11.489000	22.538714	0.000467	20.756740
210.066789	-2.973800	3.840000	-11.419000	22.545318	0.000468	20.775208
211.063859	-3.030500	3.837400	-11.628000	22.546844	0.000466	20.762037
212.067824	-3.010500	3.838400	-11.555000	22.559945	0.000469	20.789858
213.064440	-2.993500	3.837500	-11.487000	22.563315	0.000469	20.737282
214.064853	-3.005900	3.837800	-11.535000	22.564988	0.000469	20.744647
215.068648	-2.994300	3.839400	-11.495000	22.543579	0.000468	20.769199
216.070688	-3.025800	3.837300	-11.609000	22.537081	0.000470	20.760794
217.071251	-3.024400	3.837400	-11.605000	22.538045	0.000470	20.753224
218.069067	-2.991500	3.838000	-11.480000	22.560082	0.000471	20.753959
219.071980	-2.983100	3.837800	-11.448000	22.565854	0.000470	20.745989
220.078731	-2.996200	3.836900	-11.495000	22.552255	0.000470	20.759396
221.074642	-3.029400	3.835800	-11.620000	22.584693	0.000470	20.747787
222.070240	-2.990600	3.836900	-11.473000	22.601417	0.000472	20.761693
223.078410	-3.000700	3.837200	-11.513000	22.632538	0.000470	20.762044
224.076835	-3.000500	3.836400	-11.510000	22.642806	0.000471	20.745301
225.072053	-2.999200	3.836600	-11.506000	22.625143	0.000472	20.745628
226.073720	-3.017700	3.835100	-11.573000	22.627331	0.000471	20.766312
227.075059	-3.000400	3.836200	-11.509000	22.640064	0.000471	20.759150
228.072701	-2.992500	3.836200	-11.479000	22.625992	0.000472	20.746478
229.074561	-2.990300	3.835600	-11.468000	22.632767	0.000473	20.744254
230.071529	-2.987400	3.835600	-11.458000	22.631322	0.000472	20.750868
231.082194	-3.030300	3.834000	-11.617000	22.672082	0.000474	20.746176
232.076006	-2.979600	3.836300	-11.429000	22.677412	0.000474	20.731599
233.076206	-2.997900	3.835300	-11.497000	22.692363	0.000473	20.746102
234.080000	-3.008200	3.832900	-11.529000	22.686332	0.000476	20.746225
235.072859	-3.006900	3.834700	-11.530000	22.688577	0.000474	20.739938
236.077900	-3.014500	3.833500	-11.555000	22.711094	0.000474	20.760597
237.078450	-2.999300	3.833800	-11.497000	22.728054	0.000473	20.729695
238.080716	-3.005600	3.833000	-11.520000	22.725972	0.000475	20.719548
239.074781	-3.013600	3.832300	-11.548000	22.724471	0.000474	20.745547
240.073766	-2.990200	3.833800	-11.463000	22.743910	0.000475	20.751269
241.074627	-3.006200	3.833700	-11.524000	22.729889	0.000477	20.737223
242.078621	-3.000300	3.832100	-11.496000	22.749085	0.000477	20.739382
243.079017	-3.018500	3.832100	-11.567000	22.805444	0.000477	20.744630
244.080552	-3.000500	3.832800	-11.499000	22.809525	0.000477	20.754883
245.076203	-3.001700	3.832200	-11.502000	22.793839	0.000479	20.725417
246.077739	-3.012100	3.831700	-11.540000	22.796941	0.000478	20.735164
247.076264	-3.014800	3.831200	-11.549000	22.782969	0.000478	20.722589
248.078594	-2.992800	3.832200	-11.468000	22.782398	0.000476	20.716801
249.077443	-2.998200	3.831700	-11.487000	22.798866	0.000478	20.746102
250.079865	-3.018400	3.830600	-11.562000	22.813490	0.000478	20.722344
251.084565	-2.977800	3.832100	-11.411000	22.848164	0.000477	20.749969
252.083733	-2.994200	3.831500	-11.471000	22.828415	0.000479	20.724019
253.083673	-2.999000	3.829600	-11.483000	22.831606	0.000478	20.726267
254.081911	-2.991100	3.830100	-11.455000	22.822459	0.000481	20.707145
255.088986	-2.982800	3.829500	-11.422000	22.853925	0.000481	20.735351
256.079286	-3.010000	3.829500	-11.526000	22.816355	0.000480	20.736594
257.082814	-2.998700	3.829400	-11.482000	22.847225	0.000481	20.729113
258.080184	-3.003900	3.829800	-11.503000	22.854749	0.000481	20.748979
259.084745	-2.999100	3.827600	-11.479000	22.866883	0.000483	20.726521
260.083343	-2.992600	3.829200	-11.458000	22.846082	0.000482	20.708526
261.084043	-3.006700	3.828800	-11.511000	22.839733	0.000481	20.727771
262.083092	-3.014100	3.828500	-11.539000	22.851541	0.000481	20.724427
263.084949	-3.014300	3.827700	-11.537000	22.865365	0.000483	20.738277
264.083249	-2.985000	3.828500	-11.427000	22.885773	0.000483	20.708460
265.082440	-2.995500	3.827700	-11.465000	22.913444	0.000483	20.732390
266.086108	-2.977700	3.828100	-11.398000	22.913746	0.000483	20.749288
267.085634	-3.003400	3.827900	-11.496000	22.900648	0.000485	20.728580
268.081324	-2.995100	3.825900	-11.458000	22.927691	0.000484	20.714420
269.086253	-3.006700	3.827000	-11.506000	22.957163	0.000485	20.736363
270.081484	-2.986700	3.825700	-11.425000	22.948368	0.000485	20.731818
271.082413	-2.975400	3.828200	-11.390000	22.943120	0.000485	20.743156
272.084910	-2.994300	3.826000	-11.455000	22.942142	0.000485	20.742176
