LabVIEW Measurement	
Writer_Version	2
Reader_Version	2
Separator	Tab
Decimal_Separator	.
Multi_Headings	No
X_Columns	One
Time_Pref	Absolute
Operator	admin
Description	Clolumns are: time, Current, Voltage, Power, Battery Temp, and Chamber Temp
Date	2024/08/16
Time	13:07:17.8513970375061035156
***End_of_Header***	
	
Channels	6						
Samples	1	1	1	1	1	1	
Date	2024/09/16	2024/09/16	2024/09/16	2024/09/16	2024/09/16	2024/09/16	
Time	04:44:39.2810606956481933594	04:44:39.2850623130798339844	04:44:39.2910609245300292969	04:44:39.2630605697631835938	04:44:39.2630605697631835938	04:44:39.2630605697631835938	
X_Dimension	Time	Time	Time	Time	Time	Time	
X0	0.0000000000000000E+0	0.0000000000000000E+0	0.0000000000000000E+0	0.0000000000000000E+0	0.0000000000000000E+0	0.0000000000000000E+0	
Delta_X	1.000000	1.000000	1.000000	1.000000	1.000000	1.000000	
***End_of_Header***							
X_Value	Untitled	Untitled 1	Untitled 2	Untitled 3	Untitled 4	Untitled 5	Comment
0.000000	0.024122	4.087500	0.098594	20.801051	0.000473	20.743203
0.996399	-3.032100	3.913400	-11.865000	20.808163	0.000470	20.740358
1.996490	-3.012800	3.908300	-11.774000	20.799058	0.000471	20.744529
2.999526	-3.023800	3.904500	-11.805000	20.820495	0.000469	20.737517
3.996875	-2.999600	3.900900	-11.701000	20.818149	0.000471	20.747499
4.999209	-3.012100	3.897300	-11.738000	20.813311	0.000468	20.758783
5.996254	-3.016300	3.894700	-11.747000	20.838990	0.000468	20.731356
6.996762	-2.997100	3.892900	-11.666000	20.828882	0.000468	20.744956
7.996762	-2.999800	3.890900	-11.671000	20.828282	0.000467	20.762375
8.997800	-3.000400	3.889700	-11.670000	20.862348	0.000467	20.740017
9.997384	-2.990700	3.887400	-11.624000	20.843131	0.000467	20.748301
11.000106	-3.001600	3.885900	-11.663000	20.857007	0.000465	20.775928
11.997311	-3.009500	3.884300	-11.689000	20.860875	0.000464	20.753718
12.997314	-2.986700	3.883600	-11.599000	20.889100	0.000463	20.750176
14.000311	-2.993400	3.883300	-11.624000	20.875103	0.000465	20.743764
14.997317	-2.995700	3.881200	-11.626000	20.894739	0.000465	20.740642
15.999528	-2.985400	3.881600	-11.587000	20.876899	0.000463	20.744611
16.997527	-2.990100	3.880200	-11.601000	20.905719	0.000461	20.775332
17.997651	-2.999000	3.878200	-11.630000	20.899006	0.000465	20.744909
18.998660	-2.998800	3.876900	-11.625000	20.925506	0.000462	20.755291
19.998528	-2.986700	3.876300	-11.576000	20.946545	0.000463	20.770170
20.999527	-2.988700	3.876700	-11.585000	20.935763	0.000459	20.764602
21.998110	-2.984800	3.875300	-11.566000	20.948665	0.000459	20.766599
22.999892	-3.011400	3.873600	-11.664000	20.962363	0.000459	20.754695
23.999594	-3.006700	3.873100	-11.645000	20.966055	0.000460	20.760758
25.000279	-2.998000	3.872600	-11.609000	20.966008	0.000459	20.746012
25.999279	-3.007700	3.871400	-11.643000	20.964784	0.000459	20.769918
27.000642	-2.989200	3.872500	-11.574000	20.993006	0.000460	20.768273
28.000642	-3.002800	3.871700	-11.625000	20.983100	0.000457	20.780652
29.000944	-2.995700	3.871100	-11.596000	21.028388	0.000459	20.774739
30.001760	-3.003400	3.870400	-11.624000	21.035298	0.000458	20.759364
31.000989	-2.994000	3.870700	-11.588000	21.036347	0.000459	20.738127
32.007558	-3.000900	3.869700	-11.611000	21.045828	0.000457	20.773216
33.001784	-3.005800	3.869000	-11.629000	21.030608	0.000457	20.773166
34.001494	-2.993500	3.868400	-11.579000	21.039539	0.000456	20.775935
35.002494	-3.002200	3.869100	-11.615000	21.065838	0.000456	20.765256
36.002495	-2.996700	3.867200	-11.587000	21.081105	0.000456	20.761085
37.004912	-2.988400	3.867500	-11.557000	21.086100	0.000456	20.756124
38.005913	-3.002300	3.867000	-11.609000	21.095602	0.000457	20.759939
39.002072	-3.003900	3.866600	-11.614000	21.096428	0.000453	20.788267
40.002689	-2.993100	3.866000	-11.570000	21.125968	0.000457	20.749062
41.004900	-2.987200	3.866900	-11.550000	21.126834	0.000455	20.776481
42.003111	-2.991500	3.867300	-11.569000	21.115985	0.000455	20.750930
43.006328	-2.994100	3.864600	-11.570000	21.134397	0.000455	20.763183
44.003719	-2.984900	3.865800	-11.538000	21.156277	0.000455	20.764207
45.003315	-2.989500	3.865200	-11.554000	21.153210	0.000454	20.779157
46.006314	-2.983700	3.863600	-11.527000	21.147967	0.000453	20.786241
47.003486	-2.979300	3.864400	-11.512000	21.162891	0.000453	20.767978
48.004514	-2.984100	3.863500	-11.528000	21.168500	0.000456	20.792082
49.003509	-2.978500	3.864400	-11.509000	21.177187	0.000452	20.773744
50.004509	-2.985000	3.864300	-11.534000	21.196742	0.000454	20.789987
51.005512	-2.991300	3.863900	-11.558000	21.201084	0.000452	20.792434
52.004678	-3.001800	3.862900	-11.595000	21.214582	0.000453	20.774168
53.007905	-3.007400	3.861300	-11.611000	21.220689	0.000454	20.781226
54.005997	-3.009100	3.860700	-11.616000	21.235587	0.000452	20.775741
55.004694	-3.005700	3.861200	-11.605000	21.257835	0.000452	20.786618
56.005699	-3.005100	3.861100	-11.601000	21.279113	0.000454	20.793206
57.006702	-2.977700	3.863400	-11.503000	21.261702	0.000452	20.784323
58.009695	-3.000000	3.861200	-11.583000	21.270683	0.000453	20.772918
59.005838	-2.993300	3.860400	-11.554000	21.269709	0.000453	20.775738
60.006091	-3.008300	3.861500	-11.616000	21.283454	0.000454	20.789962
61.006304	-2.975800	3.862300	-11.493000	21.298222	0.000454	20.790512
62.006304	-2.996800	3.859800	-11.566000	21.329229	0.000453	20.791661
63.011462	-3.015000	3.859900	-11.636000	21.319848	0.000454	20.796026
64.009844	-2.980300	3.861200	-11.507000	21.325905	0.000453	20.796870
65.007846	-3.004700	3.859300	-11.595000	21.337085	0.000453	20.782451
66.007443	-2.989600	3.859900	-11.539000	21.348557	0.000452	20.796299
67.007717	-2.980000	3.859100	-11.500000	21.352097	0.000453	20.783245
68.007011	-3.011300	3.858300	-11.618000	21.358979	0.000453	20.798666
69.013013	-3.017600	3.859400	-11.645000	21.366889	0.000454	20.778130
70.008012	-3.003500	3.859100	-11.589000	21.371352	0.000453	20.797294
71.007236	-3.010200	3.858900	-11.615000	21.401427	0.000453	20.810315
72.010059	-3.002100	3.858300	-11.582000	21.411304	0.000454	20.799808
73.007061	-3.014900	3.858000	-11.630000	21.410008	0.000452	20.800882
74.012056	-2.997400	3.857600	-11.562000	21.426020	0.000451	20.801730
75.007678	-3.008900	3.856600	-11.603000	21.428763	0.000452	20.789301
76.008595	-2.996800	3.856800	-11.557000	21.440057	0.000453	20.795386
77.009591	-3.011400	3.857500	-11.616000	21.451082	0.000451	20.788400
78.010594	-2.999900	3.857500	-11.571000	21.437612	0.000453	20.799104
79.010107	-2.982000	3.857600	-11.502000	21.459411	0.000453	20.793414
80.013105	-3.006300	3.856900	-11.594000	21.489761	0.000451	20.811454
81.022312	-2.981900	3.857800	-11.501000	21.471804	0.000453	20.820513
82.013314	-3.003600	3.855600	-11.579000	21.501008	0.000454	20.782879
83.017311	-3.006800	3.856800	-11.596000	21.492977	0.000454	20.817043
84.013310	-3.016400	3.855200	-11.627000	21.515920	0.000454	20.791636
85.015057	-3.024100	3.855400	-11.659000	21.528538	0.000452	20.803788
86.013269	-3.008200	3.854000	-11.593000	21.531705	0.000454	20.806008
87.014832	-2.997100	3.856300	-11.557000	21.550160	0.000455	20.806931
88.014720	-2.989800	3.855800	-11.527000	21.555770	0.000454	20.800692
89.015691	-2.995200	3.856200	-11.549000	21.551179	0.000456	20.821228
90.015695	-2.989500	3.855000	-11.523000	21.581681	0.000453	20.807179
91.014368	-3.001400	3.854000	-11.566000	21.552974	0.000453	20.793152
92.014368	-3.004500	3.852700	-11.575000	21.592374	0.000456	20.817406
93.015973	-2.994800	3.854500	-11.543000	21.589359	0.000454	20.819604
94.015010	-3.008900	3.854000	-11.595000	21.607885	0.000454	20.808271
95.014420	-2.987300	3.855600	-11.516000	21.615067	0.000454	20.819726
96.014650	-3.018900	3.853200	-11.632000	21.615566	0.000456	20.796992
97.014807	-3.003900	3.853500	-11.575000	21.630280	0.000454	20.794173
98.014079	-2.995800	3.853700	-11.544000	21.627961	0.000456	20.808922
99.015301	-2.999100	3.853700	-11.557000	21.662771	0.000457	20.830955
100.014899	-2.978700	3.854700	-11.481000	21.664964	0.000453	20.798063
101.018054	-3.000200	3.853900	-11.561000	21.653295	0.000455	20.820998
102.015054	-3.015000	3.852600	-11.615000	21.687782	0.000457	20.809518
103.015055	-3.007300	3.853300	-11.587000	21.679429	0.000456	20.810168
104.016163	-3.007700	3.853400	-11.589000	21.690876	0.000457	20.816407
105.017482	-2.998600	3.852500	-11.552000	21.726908	0.000457	20.832079
106.019696	-3.025700	3.851000	-11.650000	21.712347	0.000459	20.820351
107.020147	-2.995900	3.851900	-11.539000	21.745608	0.000457	20.826138
108.019544	-3.004800	3.852300	-11.573000	21.736908	0.000458	20.807000
109.019632	-3.006200	3.851200	-11.577000	21.742715	0.000458	20.819924
110.020596	-3.011900	3.851800	-11.600000	21.758798	0.000457	20.828908
111.018597	-3.020400	3.851300	-11.632000	21.763112	0.000458	20.805251
112.022587	-2.997600	3.851300	-11.544000	21.763237	0.000458	20.818178
113.019458	-3.024100	3.851100	-11.645000	21.769669	0.000457	20.837891
114.019583	-3.021700	3.851200	-11.635000	21.796199	0.000459	20.842632
115.020585	-3.006600	3.850500	-11.576000	21.813454	0.000458	20.832402
116.020903	-3.003800	3.851900	-11.569000	21.813878	0.000459	20.829507
117.021913	-3.000100	3.849400	-11.548000	21.809962	0.000459	20.826537
118.020875	-2.995600	3.850900	-11.535000	21.801787	0.000458	20.838268
119.020354	-2.987000	3.850100	-11.499000	21.825850	0.000462	20.843387
120.020573	-2.989400	3.849400	-11.507000	21.843773	0.000460	20.848049
121.020781	-2.993900	3.850800	-11.527000	21.850778	0.000459	20.839888
122.022224	-3.006000	3.848700	-11.569000	21.858013	0.000461	20.842388
123.024845	-3.002800	3.850100	-11.560000	21.874342	0.000462	20.834550
124.021877	-3.009900	3.849000	-11.584000	21.874514	0.000461	20.828085
125.020413	-3.002400	3.849900	-11.558000	21.848037	0.000461	20.843782
126.020232	-2.977200	3.850200	-11.462000	21.889874	0.000462	20.828760
127.024281	-3.010900	3.849200	-11.589000	21.912515	0.000461	20.853318
128.022280	-3.000200	3.850000	-11.549000	21.909942	0.000460	20.838890
129.022280	-3.009100	3.849400	-11.582000	21.915551	0.000462	20.834547
130.023999	-2.998500	3.847600	-11.536000	21.915005	0.000464	20.847277
131.022312	-3.036400	3.847400	-11.681000	21.934452	0.000463	20.850147
132.024919	-3.005900	3.848100	-11.566000	21.938489	0.000461	20.836170
133.025331	-2.998100	3.847200	-11.532000	21.966863	0.000461	20.831856
134.023591	-2.981400	3.848200	-11.472000	21.970749	0.000463	20.856608
135.023900	-2.975600	3.847800	-11.448000	21.977233	0.000464	20.853142
136.024901	-2.995900	3.848300	-11.528000	21.964344	0.000465	20.847826
137.025210	-2.990800	3.847500	-11.506000	21.996083	0.000465	20.850200
138.026551	-2.977200	3.848400	-11.456000	21.993790	0.000467	20.866870
139.028015	-3.001500	3.847400	-11.546000	22.016723	0.000462	20.857111
140.029189	-3.003300	3.847900	-11.555000	22.010418	0.000464	20.848430
141.030035	-2.995800	3.847200	-11.525000	22.033078	0.000465	20.863526
142.027515	-3.018700	3.845600	-11.608000	22.029041	0.000467	20.842417
143.032809	-2.986500	3.846700	-11.487000	22.059777	0.000466	20.846159
144.028156	-3.002000	3.846500	-11.546000	22.045245	0.000466	20.846784
145.028157	-3.009000	3.845500	-11.571000	22.059727	0.000466	20.845161
146.029237	-2.991000	3.846200	-11.503000	22.072989	0.000466	20.859385
147.030584	-3.009800	3.845500	-11.573000	22.087248	0.000466	20.869392
148.030554	-2.970900	3.846800	-11.427000	22.063021	0.000467	20.849881
149.033553	-3.009200	3.845300	-11.571000	22.073789	0.000469	20.868720
150.045771	-2.976500	3.845800	-11.446000	22.084083	0.000468	20.872387
151.030993	-3.000000	3.844800	-11.533000	22.098568	0.000467	20.841371
152.034543	-3.001700	3.845700	-11.543000	22.110731	0.000466	20.863505
153.030311	-2.987300	3.845100	-11.485000	22.135409	0.000466	20.865926
154.034355	-2.992800	3.843900	-11.504000	22.125890	0.000468	20.875835
155.030793	-2.992700	3.844700	-11.505000	22.140396	0.000469	20.859539
156.030752	-2.979400	3.844400	-11.453000	22.153456	0.000469	20.876407
157.032752	-3.006800	3.842900	-11.554000	22.160036	0.000470	20.854547
158.031227	-2.992600	3.844200	-11.503000	22.161808	0.000468	20.853002
159.032228	-2.994600	3.843200	-11.507000	22.190324	0.000472	20.853577
160.031739	-3.006200	3.843100	-11.552000	22.217418	0.000470	20.862212
161.031738	-2.980700	3.844800	-11.459000	22.207599	0.000470	20.876087
162.032739	-2.994900	3.843300	-11.508000	22.201166	0.000470	20.853052
163.032766	-2.986000	3.842700	-11.473000	22.205877	0.000471	20.871992
164.031766	-3.010900	3.841500	-11.566000	22.216744	0.000473	20.862959
165.032766	-2.963600	3.843000	-11.388000	22.228583	0.000470	20.863433
166.032765	-2.983700	3.842000	-11.463000	22.235686	0.000470	20.876708
167.031279	-2.978100	3.842300	-11.441000	22.262829	0.000473	20.870696
168.032793	-2.989200	3.843200	-11.487000	22.225020	0.000474	20.871719
169.032792	-2.977000	3.840900	-11.434000	22.252340	0.000473	20.862564
170.035803	-2.987800	3.842600	-11.480000	22.279755	0.000474	20.861565
171.031305	-2.988300	3.842100	-11.480000	22.273943	0.000473	20.873763
172.033303	-3.004300	3.840500	-11.536000	22.291640	0.000475	20.859715
173.033846	-3.012300	3.839700	-11.565000	22.289323	0.000473	20.878730
174.036847	-2.981600	3.841700	-11.453000	22.293961	0.000473	20.845445
175.035847	-2.991000	3.841100	-11.487000	22.309286	0.000473	20.859367
176.041845	-2.981000	3.840300	-11.446000	22.322918	0.000474	20.847413
177.034846	-2.996200	3.840800	-11.507000	22.336528	0.000477	20.857248
178.037848	-2.992800	3.840500	-11.493000	22.323091	0.000474	20.860861
179.039847	-3.004700	3.841000	-11.539000	22.339093	0.000477	20.865979
180.037360	-2.991300	3.839400	-11.484000	22.375952	0.000474	20.859266
181.047359	-2.989100	3.840200	-11.477000	22.348614	0.000476	20.857021
182.034872	-2.997800	3.839400	-11.509000	22.358633	0.000474	20.870846
183.034873	-3.004000	3.840300	-11.535000	22.364663	0.000476	20.850333
184.034408	-2.996600	3.839000	-11.502000	22.375923	0.000477	20.854970
185.035408	-3.004500	3.839100	-11.534000	22.366980	0.000478	20.841274
186.035407	-2.997900	3.838600	-11.506000	22.374854	0.000479	20.836831
187.036408	-3.007400	3.838100	-11.541000	22.381386	0.000477	20.838157
188.043409	-2.999400	3.839300	-11.515000	22.391179	0.000478	20.839428
189.039408	-3.018100	3.836900	-11.579000	22.397507	0.000479	20.826325
190.037408	-2.997900	3.837900	-11.505000	22.372512	0.000479	20.836856
191.040407	-2.990600	3.837400	-11.475000	22.393242	0.000480	20.826321
192.046425	-2.981900	3.837400	-11.442000	22.397657	0.000479	20.819363
193.038927	-2.987300	3.837300	-11.463000	22.390329	0.000481	20.852801
194.038927	-2.987300	3.836800	-11.460000	22.373778	0.000481	20.844762
195.039925	-2.997900	3.837400	-11.503000	22.392219	0.000480	20.836203
196.042924	-3.007600	3.837300	-11.540000	22.410983	0.000482	20.826544
197.043926	-2.995900	3.836000	-11.492000	22.438893	0.000482	20.831734
198.040925	-3.010000	3.836500	-11.546000	22.462169	0.000480	20.843663
199.040926	-3.014900	3.836400	-11.566000	22.475774	0.000482	20.827417
200.044927	-2.972500	3.836800	-11.404000	22.474651	0.000484	20.825818
201.041926	-2.994200	3.836800	-11.487000	22.468647	0.000482	20.845883
202.044927	-3.018500	3.836600	-11.579000	22.453345	0.000485	20.817284
203.042443	-2.981800	3.836800	-11.440000	22.479235	0.000485	20.831357
204.043443	-2.984900	3.835700	-11.448000	22.478661	0.000483	20.837420
205.043443	-2.995200	3.835100	-11.486000	22.471886	0.000485	20.822101
206.043447	-2.996100	3.835700	-11.491000	22.477065	0.000483	20.825391
207.047444	-3.009600	3.834800	-11.540000	22.476269	0.000486	20.837869
208.047442	-3.007500	3.834600	-11.531000	22.487284	0.000485	20.827090
209.044443	-3.000300	3.834900	-11.505000	22.510529	0.000486	20.810067
210.046442	-3.004300	3.833100	-11.515000	22.516785	0.000483	20.821073
211.045443	-2.966000	3.834100	-11.371000	22.553863	0.000486	20.814112
212.048442	-3.008600	3.834200	-11.535000	22.550972	0.000486	20.821174
213.045442	-3.040800	3.832600	-11.653000	22.555585	0.000487	20.828164
214.047442	-3.003500	3.833400	-11.513000	22.576534	0.000485	20.803153
215.046011	-3.018400	3.832400	-11.566000	22.570408	0.000487	20.798914
216.046011	-2.993100	3.833000	-11.472000	22.571530	0.000486	20.810944
217.049010	-3.007500	3.833500	-11.529000	22.570035	0.000487	20.814662
218.047015	-3.014400	3.832600	-11.552000	22.597245	0.000487	20.829112
219.047014	-3.022600	3.831300	-11.579000	22.614456	0.000488	20.801781
220.047009	-3.005800	3.832100	-11.517000	22.620367	0.000487	20.817183
221.047526	-3.028700	3.831700	-11.604000	22.625696	0.000488	20.812090
222.047527	-3.013600	3.831800	-11.546000	22.637283	0.000489	20.809471
223.049563	-3.002400	3.832500	-11.506000	22.649839	0.000490	20.802133
224.049528	-3.017000	3.830500	-11.556000	22.655125	0.000490	20.821652
225.048900	-3.014200	3.830100	-11.544000	22.683850	0.000489	20.815811
226.053007	-2.991700	3.831100	-11.460000	22.654325	0.000490	20.829385
227.051227	-3.006900	3.830000	-11.516000	22.674408	0.000489	20.805879
228.053282	-3.013800	3.830600	-11.544000	22.675305	0.000490	20.806777
229.049205	-3.023700	3.829400	-11.578000	22.698328	0.000489	20.837424
230.048474	-3.012900	3.829600	-11.538000	22.717137	0.000491	20.791306
231.048521	-2.997600	3.830400	-11.480000	22.718234	0.000490	20.806156
232.048522	-3.003100	3.829900	-11.501000	22.709190	0.000493	20.795200
233.049925	-2.987100	3.829300	-11.438000	22.708143	0.000493	20.816910
234.052923	-3.011600	3.829500	-11.532000	22.679866	0.000492	20.802337
235.050977	-2.992500	3.829400	-11.458000	22.694566	0.000494	20.812320
236.050979	-3.015700	3.828900	-11.545000	22.695014	0.000492	20.798070
237.057194	-2.980900	3.829100	-11.412000	22.705503	0.000491	20.810947
238.052474	-3.007100	3.828500	-11.512000	22.683560	0.000492	20.802718
239.052498	-2.984200	3.828500	-11.425000	22.731491	0.000492	20.799047
240.052714	-3.012700	3.829100	-11.535000	22.751799	0.000493	20.807061
241.055941	-2.982600	3.829400	-11.421000	22.760218	0.000493	20.808857
242.054163	-2.995400	3.828400	-11.467000	22.807279	0.000494	20.806687
243.053779	-3.002400	3.827300	-11.490000	22.772751	0.000496	20.777315
244.054780	-3.002700	3.826200	-11.488000	22.779629	0.000496	20.804593
245.053505	-2.994300	3.827100	-11.459000	22.791214	0.000495	20.801026
246.053441	-3.018200	3.827300	-11.550000	22.792136	0.000497	20.789147
247.053440	-3.000700	3.826800	-11.482000	22.798988	0.000495	20.787951
248.056490	-3.032300	3.826800	-11.603000	22.815533	0.000495	20.788403
249.054154	-3.017200	3.824200	-11.537000	22.828911	0.000495	20.793745
250.056155	-2.984100	3.827000	-11.419000	22.848690	0.000496	20.797437
251.055154	-2.993700	3.826200	-11.454000	22.837384	0.000497	20.793224
252.055158	-2.998000	3.824800	-11.466000	22.838679	0.000497	20.817280
253.056373	-3.010200	3.825900	-11.516000	22.825950	0.000497	20.784140
254.056869	-3.004000	3.825400	-11.490000	22.863118	0.000498	20.794348
255.059899	-2.981200	3.825500	-11.404000	22.876048	0.000499	20.796870
256.056428	-3.001700	3.824300	-11.479000	22.895503	0.000497	20.794075
257.057480	-2.996700	3.825700	-11.464000	22.898493	0.000497	20.789010
258.057666	-3.023600	3.823400	-11.559000	22.917076	0.000500	20.782498
259.058331	-3.007000	3.824000	-11.498000	22.924423	0.000500	20.797919
260.058719	-3.017900	3.823400	-11.537000	22.940141	0.000500	20.809873
261.073235	-2.994400	3.822200	-11.444000	22.964352	0.000499	20.806630
262.058239	-3.026700	3.821300	-11.565000	22.961341	0.000501	20.766154
263.058855	-3.002100	3.823400	-11.477000	22.944974	0.000502	20.791956
264.063979	-3.003300	3.822200	-11.477000	22.970834	0.000498	20.798425
265.060706	-2.992800	3.823400	-11.442000	22.973993	0.000500	20.787365
266.063080	-2.998500	3.822300	-11.460000	22.969436	0.000501	20.816939
267.062577	-3.008600	3.822900	-11.500000	22.958053	0.000505	20.794154
268.061511	-2.990000	3.822200	-11.428000	22.959595	0.000502	20.801389
269.063707	-3.000900	3.822400	-11.469000	22.954439	0.000502	20.795275
270.062706	-3.045500	3.819700	-11.632000	22.978277	0.000501	20.780752
271.063706	-3.010000	3.821900	-11.503000	22.974316	0.000504	20.779628
272.066035	-2.987600	3.821700	-11.417000	22.974466	0.000504	20.815814
