LabVIEW Measurement	
Writer_Version	2
Reader_Version	2
Separator	Tab
Decimal_Separator	.
Multi_Headings	No
X_Columns	One
Time_Pref	Absolute
Operator	admin
Description	Clolumns are: time, Current, Voltage, Power, Battery Temp, and Chamber Temp
Date	2024/08/16
Time	13:07:17.8513970375061035156
***End_of_Header***	
	
Channels	6						
Samples	1	1	1	1	1	1	
Date	2024/09/04	2024/09/04	2024/09/04	2024/09/04	2024/09/04	2024/09/04	
Time	17:05:31.0156831741333007813	17:05:31.0217151641845703125	17:05:31.0265984535217285156	17:05:30.9996862411499023438	17:05:30.9996862411499023438	17:05:30.9996862411499023438	
X_Dimension	Time	Time	Time	Time	Time	Time	
X0	0.0000000000000000E+0	0.0000000000000000E+0	0.0000000000000000E+0	0.0000000000000000E+0	0.0000000000000000E+0	0.0000000000000000E+0	
Delta_X	1.000000	1.000000	1.000000	1.000000	1.000000	1.000000	
***End_of_Header***							
X_Value	Untitled	Untitled 1	Untitled 2	Untitled 3	Untitled 4	Untitled 5	Comment
0.000000	0.000235	4.089800	0.000986	20.777233	0.000461	20.833657
1.001364	-3.005000	3.925300	-11.795000	20.775543	0.000462	20.844769
2.000761	-3.001200	3.919900	-11.763000	20.778862	0.000462	20.841450
3.002781	-3.010900	3.914400	-11.784000	20.765013	0.000458	20.846567
4.001898	-3.009100	3.911300	-11.769000	20.781534	0.000457	20.820415
5.002858	-3.002400	3.908300	-11.734000	20.769833	0.000458	20.798757
6.004204	-2.998000	3.905100	-11.707000	20.788820	0.000457	20.821062
7.002724	-2.985800	3.904300	-11.657000	20.777148	0.000455	20.835943
8.003179	-3.016600	3.901400	-11.768000	20.789624	0.000456	20.837039
9.003944	-3.019100	3.897500	-11.766000	20.789126	0.000455	20.819471
10.003368	-3.002600	3.898500	-11.705000	20.802876	0.000455	20.827532
11.004594	-2.996400	3.896800	-11.675000	20.823071	0.000452	20.815485
12.007348	-2.993400	3.894200	-11.656000	20.835819	0.000452	20.796939
13.003598	-3.021600	3.893700	-11.765000	20.823723	0.000453	20.827516
14.006614	-2.988400	3.891400	-11.628000	20.816107	0.000454	20.819426
15.004363	-2.983800	3.891800	-11.611000	20.836525	0.000452	20.814240
16.004930	-2.989700	3.891400	-11.633000	20.852093	0.000451	20.792351
17.007684	-3.015500	3.889900	-11.728000	20.850798	0.000449	20.819505
18.005091	-3.008400	3.889000	-11.699000	20.874031	0.000451	20.809074
19.005636	-2.986900	3.888500	-11.613000	20.886387	0.000449	20.807681
20.005666	-2.998700	3.887000	-11.654000	20.879671	0.000448	20.822775
21.004070	-2.965600	3.886900	-11.526000	20.879448	0.000449	20.810225
22.004179	-3.001600	3.885800	-11.662000	20.889636	0.000449	20.827051
23.006368	-2.988400	3.885000	-11.609000	20.906152	0.000447	20.809903
24.005421	-2.983600	3.885200	-11.591000	20.929980	0.000448	20.815717
25.006600	-2.987800	3.884100	-11.603000	20.923921	0.000446	20.807760
26.005027	-3.015000	3.882900	-11.705000	20.913594	0.000446	20.803596
27.010520	-3.020800	3.883100	-11.728000	20.923121	0.000448	20.805063
28.006094	-2.982100	3.882600	-11.578000	20.937620	0.000447	20.820986
29.010512	-2.997200	3.880900	-11.631000	20.956658	0.000445	20.785499
30.009395	-2.996100	3.880600	-11.626000	20.963270	0.000447	20.823407
31.009289	-2.983600	3.880800	-11.578000	20.973873	0.000448	20.798450
32.006406	-2.993100	3.880400	-11.614000	21.001493	0.000445	20.814694
33.006529	-2.981200	3.880000	-11.566000	20.998698	0.000447	20.797674
34.006239	-3.000400	3.878800	-11.637000	21.014342	0.000446	20.819011
35.009398	-3.003500	3.878300	-11.647000	21.007878	0.000446	20.800218
36.006200	-2.994800	3.879100	-11.616000	20.996649	0.000444	20.816013
37.008883	-2.992900	3.877600	-11.605000	21.016634	0.000444	20.810872
38.007954	-2.990100	3.877800	-11.594000	21.014333	0.000444	20.811890
39.007704	-2.986800	3.877600	-11.580000	21.021498	0.000444	20.800090
40.006742	-3.028100	3.875900	-11.736000	21.027533	0.000443	20.796643
41.006233	-3.003000	3.878300	-11.645000	21.059743	0.000446	20.804679
42.007505	-3.020100	3.875400	-11.702000	21.057694	0.000443	20.790301
43.008971	-3.017600	3.874900	-11.692000	21.068148	0.000445	20.805973
44.006798	-3.012400	3.874000	-11.669000	21.095993	0.000444	20.797314
45.008851	-2.982000	3.875500	-11.556000	21.110184	0.000444	20.807242
46.008718	-3.005500	3.874000	-11.642000	21.110382	0.000442	20.813130
47.008246	-2.994600	3.874600	-11.601000	21.105444	0.000444	20.808665
48.010406	-2.991600	3.874700	-11.590000	21.125126	0.000440	20.793739
49.007163	-2.990300	3.874500	-11.585000	21.114821	0.000443	20.793388
50.007879	-2.999400	3.872400	-11.614000	21.120109	0.000440	20.796307
51.012621	-2.993300	3.874200	-11.596000	21.133530	0.000441	20.779860
52.008737	-3.020000	3.873600	-11.697000	21.145632	0.000440	20.791018
53.008303	-2.998400	3.873000	-11.612000	21.152140	0.000440	20.790889
54.010230	-2.974100	3.872900	-11.518000	21.160450	0.000440	20.784977
55.010752	-2.982700	3.873700	-11.553000	21.186071	0.000443	20.778838
56.011069	-3.001700	3.872300	-11.622000	21.171648	0.000439	20.790964
57.010703	-2.985400	3.872400	-11.560000	21.197797	0.000442	20.793413
58.010658	-2.990500	3.871100	-11.576000	21.196292	0.000442	20.783372
59.008910	-2.970000	3.873400	-11.503000	21.210466	0.000442	20.797078
60.009735	-2.998700	3.870500	-11.605000	21.218495	0.000442	20.813644
61.012535	-3.015900	3.871000	-11.674000	21.241344	0.000442	20.786716
62.014178	-2.999500	3.870000	-11.607000	21.237503	0.000441	20.783348
63.014486	-2.997300	3.870200	-11.599000	21.242135	0.000443	20.790352
64.012964	-2.990600	3.871000	-11.576000	21.238397	0.000442	20.799889
65.012221	-2.995100	3.870000	-11.590000	21.255283	0.000444	20.790702
66.016775	-2.997100	3.869500	-11.597000	21.261469	0.000444	20.789779
67.014293	-2.996900	3.868600	-11.593000	21.268124	0.000442	20.811136
68.015471	-2.993300	3.869500	-11.582000	21.300254	0.000442	20.777846
69.015625	-3.002700	3.869200	-11.617000	21.294809	0.000443	20.788046
70.018209	-3.002400	3.869900	-11.618000	21.303390	0.000444	20.793311
71.015346	-2.987700	3.869400	-11.560000	21.302916	0.000442	20.775293
72.019303	-3.006100	3.867800	-11.625000	21.315688	0.000442	20.782855
73.018696	-3.000600	3.868500	-11.607000	21.339079	0.000442	20.768324
74.015864	-2.984600	3.867600	-11.542000	21.336882	0.000444	20.794102
75.019767	-2.999300	3.867600	-11.599000	21.338205	0.000442	20.783097
76.019141	-3.011500	3.867500	-11.646000	21.367815	0.000443	20.781902
77.019287	-3.025400	3.867100	-11.699000	21.379461	0.000442	20.782648
78.018680	-3.015400	3.867200	-11.660000	21.365565	0.000441	20.777754
79.020203	-3.012400	3.867300	-11.649000	21.380883	0.000442	20.808726
80.019661	-3.034000	3.865500	-11.727000	21.390658	0.000442	20.792902
81.022774	-2.991500	3.866900	-11.567000	21.388890	0.000442	20.783547
82.020411	-2.979100	3.867600	-11.521000	21.379980	0.000443	20.792176
83.021940	-2.993100	3.867300	-11.574000	21.402130	0.000442	20.766922
84.021558	-2.994200	3.866400	-11.575000	21.421778	0.000443	20.781365
85.024936	-2.996100	3.866800	-11.584000	21.426245	0.000442	20.760230
86.025430	-3.012100	3.866100	-11.645000	21.418485	0.000440	20.773803
87.024759	-3.004500	3.865300	-11.613000	21.431903	0.000442	20.797659
88.022276	-2.992900	3.864300	-11.564000	21.448415	0.000441	20.777670
89.027430	-3.010500	3.864600	-11.634000	21.449239	0.000442	20.767115
90.023346	-3.007900	3.864600	-11.624000	21.466047	0.000440	20.787726
91.023314	-2.996400	3.864300	-11.578000	21.466092	0.000443	20.758847
92.023179	-3.014000	3.865000	-11.649000	21.481734	0.000441	20.761697
93.030709	-3.005900	3.865000	-11.617000	21.473797	0.000443	20.776515
94.023534	-3.010500	3.863600	-11.630000	21.482974	0.000444	20.767205
95.025326	-2.982400	3.865700	-11.528000	21.489435	0.000443	20.776989
96.026621	-2.995300	3.863700	-11.572000	21.530533	0.000445	20.775438
97.023665	-3.009000	3.862500	-11.622000	21.541674	0.000446	20.760508
98.022379	-2.997000	3.863500	-11.578000	21.522226	0.000444	20.747211
99.026031	-2.999200	3.863200	-11.585000	21.533248	0.000445	20.767724
100.024449	-3.004100	3.863800	-11.606000	21.543323	0.000445	20.767847
101.024889	-3.003500	3.863300	-11.603000	21.563871	0.000446	20.757114
102.026223	-2.996900	3.864000	-11.578000	21.562874	0.000445	20.769867
103.024666	-2.994800	3.863200	-11.568000	21.566684	0.000445	20.781742
104.024822	-2.988800	3.863200	-11.545000	21.585040	0.000445	20.758384
105.031767	-3.011900	3.863000	-11.635000	21.591521	0.000445	20.781939
106.025702	-2.999100	3.863600	-11.587000	21.589276	0.000445	20.779692
107.025791	-3.023800	3.862700	-11.679000	21.594310	0.000448	20.768135
108.024354	-2.993400	3.862300	-11.560000	21.609650	0.000446	20.764045
109.026033	-2.981900	3.862800	-11.518000	21.635108	0.000445	20.764391
110.025424	-3.027200	3.861500	-11.688000	21.642018	0.000446	20.757081
111.028526	-3.000300	3.861700	-11.585000	21.652190	0.000444	20.756829
112.026244	-3.006500	3.860800	-11.606000	21.636451	0.000446	20.756251
113.025782	-3.023800	3.861400	-11.675000	21.642487	0.000448	20.766085
114.025609	-2.998800	3.861800	-11.580000	21.659890	0.000447	20.759793
115.027712	-2.992300	3.862300	-11.555000	21.659470	0.000444	20.763640
116.025808	-2.967900	3.861900	-11.459000	21.650991	0.000448	20.752784
117.031941	-2.978100	3.861000	-11.497000	21.682237	0.000445	20.752285
118.028048	-2.997300	3.860300	-11.570000	21.673733	0.000445	20.746145
119.025783	-2.995100	3.861300	-11.564000	21.683081	0.000447	20.766881
120.026227	-2.982300	3.860500	-11.512000	21.720485	0.000447	20.748363
121.027975	-2.992800	3.860700	-11.552000	21.709732	0.000447	20.765103
122.027712	-3.007500	3.859800	-11.608000	21.748980	0.000445	20.756494
123.031460	-2.998800	3.859400	-11.573000	21.757430	0.000447	20.752148
124.029170	-2.989600	3.859600	-11.538000	21.770097	0.000448	20.763404
125.028636	-2.981700	3.858800	-11.504000	21.778654	0.000447	20.744466
126.029847	-2.983700	3.859600	-11.514000	21.747905	0.000446	20.747356
127.028710	-2.979000	3.859600	-11.497000	21.759700	0.000449	20.751100
128.029769	-2.997900	3.859400	-11.569000	21.754641	0.000448	20.748882
129.029166	-2.995300	3.859600	-11.559000	21.759803	0.000448	20.737927
130.028275	-3.008400	3.859200	-11.608000	21.755707	0.000450	20.751846
131.031830	-2.993100	3.858700	-11.548000	21.782741	0.000449	20.767049
132.029879	-3.022900	3.857200	-11.659000	21.792063	0.000449	20.742714
133.031131	-3.006000	3.857600	-11.595000	21.796874	0.000449	20.749900
134.035139	-3.010600	3.857500	-11.613000	21.806324	0.000449	20.768368
135.032765	-2.994500	3.858300	-11.553000	21.832800	0.000448	20.748399
136.033082	-2.993000	3.858400	-11.547000	21.850006	0.000451	20.733378
137.035175	-3.012900	3.858100	-11.623000	21.857536	0.000450	20.761779
138.031349	-3.000700	3.857800	-11.575000	21.863068	0.000453	20.739340
139.033232	-3.010000	3.857700	-11.610000	21.866158	0.000450	20.745752
140.031981	-3.020000	3.857500	-11.648000	21.861973	0.000451	20.756262
141.032894	-2.997500	3.856300	-11.559000	21.888797	0.000454	20.758455
142.033056	-2.987400	3.857400	-11.522000	21.885007	0.000451	20.752291
143.033067	-2.976600	3.858100	-11.483000	21.901710	0.000454	20.739138
144.038931	-2.977700	3.857100	-11.484000	21.905648	0.000452	20.735493
145.035186	-3.005400	3.857200	-11.591000	21.907794	0.000454	20.756134
146.035203	-2.996100	3.856400	-11.553000	21.915872	0.000456	20.729131
147.039118	-2.980200	3.857100	-11.494000	21.915373	0.000456	20.750918
148.036216	-2.994000	3.855800	-11.544000	21.914850	0.000454	20.749920
149.038068	-3.020200	3.854900	-11.641000	21.938910	0.000457	20.767840
150.039590	-3.022900	3.856000	-11.656000	21.956007	0.000456	20.737064
151.041026	-3.026800	3.854600	-11.665000	21.962984	0.000456	20.736936
152.037698	-3.020500	3.854100	-11.639000	21.981536	0.000454	20.752188
153.037966	-3.010100	3.855100	-11.603000	21.983356	0.000457	20.737414
154.041098	-2.980600	3.855000	-11.489000	21.980984	0.000455	20.734091
155.039255	-3.006700	3.853600	-11.585000	21.994370	0.000456	20.739430
156.040238	-2.984700	3.855000	-11.505000	22.013197	0.000459	20.728405
157.041484	-2.999900	3.854100	-11.561000	22.028596	0.000456	20.743821
158.041417	-2.999400	3.853500	-11.557000	22.010198	0.000458	20.732041
159.041617	-3.003700	3.854300	-11.576000	22.028601	0.000459	20.740032
160.047030	-2.984300	3.855300	-11.505000	22.034729	0.000458	20.743322
161.044363	-2.989500	3.853600	-11.519000	22.042559	0.000459	20.737410
162.044763	-2.997800	3.852800	-11.549000	22.051879	0.000459	20.751008
163.046910	-3.011500	3.852100	-11.600000	22.067957	0.000461	20.732016
164.044487	-2.983200	3.853400	-11.494000	22.057809	0.000463	20.763584
165.048284	-3.004900	3.853800	-11.579000	22.063419	0.000462	20.748336
166.043710	-2.997800	3.853900	-11.552000	22.053596	0.000461	20.751305
167.047151	-3.012900	3.852600	-11.606000	22.074633	0.000463	20.741070
168.045130	-3.013400	3.852600	-11.609000	22.102622	0.000465	20.733529
169.044110	-2.978500	3.852600	-11.474000	22.100431	0.000465	20.745086
170.050325	-3.012400	3.851900	-11.603000	22.134975	0.000465	20.749325
171.045574	-2.989200	3.852700	-11.516000	22.113757	0.000464	20.738513
172.044622	-3.016800	3.851900	-11.619000	22.145888	0.000466	20.729429
173.049388	-3.012800	3.851100	-11.602000	22.134769	0.000467	20.734893
174.045912	-2.976400	3.851600	-11.463000	22.144961	0.000467	20.754107
175.048638	-2.992500	3.850700	-11.522000	22.173219	0.000466	20.743992
176.048079	-3.027100	3.849800	-11.653000	22.159633	0.000465	20.741295
177.045605	-3.016200	3.848900	-11.608000	22.168203	0.000466	20.734227
178.046533	-3.004300	3.849500	-11.564000	22.147232	0.000467	20.746423
179.046189	-2.992600	3.850100	-11.521000	22.182051	0.000466	20.767060
180.047011	-3.013100	3.850400	-11.600000	22.200442	0.000468	20.748014
181.045884	-3.021600	3.849500	-11.631000	22.205795	0.000468	20.743891
182.047386	-3.001600	3.849000	-11.552000	22.205766	0.000470	20.755242
183.048115	-2.999900	3.849300	-11.547000	22.220640	0.000469	20.744529
184.047106	-3.010700	3.849200	-11.587000	22.240426	0.000468	20.743003
185.050730	-2.968500	3.849900	-11.427000	22.212329	0.000468	20.764183
186.049003	-2.972500	3.848600	-11.439000	22.233038	0.000468	20.741769
187.050634	-2.983900	3.847900	-11.481000	22.243526	0.000471	20.743736
188.049415	-2.991900	3.848400	-11.513000	22.250551	0.000470	20.764521
189.048886	-2.979900	3.849800	-11.472000	22.272902	0.000467	20.735691
190.049562	-3.000400	3.847700	-11.544000	22.253634	0.000470	20.757177
191.049209	-3.007300	3.848500	-11.572000	22.264567	0.000469	20.756269
192.048225	-3.007600	3.848800	-11.575000	22.285398	0.000470	20.761955
193.049827	-3.007600	3.848900	-11.574000	22.289981	0.000469	20.758483
194.049839	-3.011100	3.847200	-11.584000	22.301366	0.000468	20.756606
195.052607	-3.013000	3.846400	-11.588000	22.316716	0.000470	20.757752
196.051260	-3.012800	3.846700	-11.588000	22.320525	0.000469	20.753505
197.049069	-2.994100	3.846600	-11.516000	22.305224	0.000469	20.782281
198.051016	-2.983200	3.847400	-11.477000	22.324856	0.000471	20.751204
199.050771	-2.970500	3.847200	-11.426000	22.329641	0.000470	20.748408
200.051509	-2.995000	3.847600	-11.523000	22.341721	0.000471	20.771411
201.051144	-2.986700	3.846200	-11.487000	22.336912	0.000472	20.762328
202.049569	-2.999000	3.845900	-11.533000	22.352213	0.000471	20.771486
203.053159	-3.006700	3.845800	-11.562000	22.339127	0.000473	20.787780
204.051443	-2.990900	3.846600	-11.504000	22.356618	0.000470	20.784432
205.056706	-3.019700	3.843600	-11.605000	22.347049	0.000472	20.774376
206.053411	-3.017400	3.844800	-11.600000	22.332568	0.000472	20.739485
207.051435	-3.002900	3.846300	-11.549000	22.365590	0.000472	20.771605
208.050376	-3.010700	3.845500	-11.576000	22.385349	0.000472	20.759623
209.052333	-3.008900	3.844400	-11.566000	22.387845	0.000474	20.782036
210.052941	-2.998800	3.844700	-11.528000	22.391480	0.000473	20.771926
211.051336	-3.007700	3.844700	-11.563000	22.426168	0.000472	20.778214
212.052607	-2.996800	3.844200	-11.519000	22.446453	0.000474	20.763441
213.052661	-3.011900	3.844300	-11.578000	22.449344	0.000474	20.761593
214.052754	-2.980700	3.844000	-11.457000	22.453625	0.000475	20.769200
215.052346	-2.984300	3.844700	-11.472000	22.455593	0.000474	20.778758
216.054345	-2.983300	3.843700	-11.465000	22.476726	0.000475	20.773369
217.053108	-3.006100	3.843300	-11.553000	22.469052	0.000476	20.767106
218.056220	-2.997500	3.843900	-11.521000	22.467282	0.000476	20.761065
219.057109	-3.006700	3.842700	-11.554000	22.462596	0.000479	20.761115
220.054619	-3.013700	3.842900	-11.581000	22.451505	0.000476	20.777983
221.056521	-3.027600	3.841900	-11.631000	22.462695	0.000477	20.783974
222.059014	-3.001700	3.842500	-11.533000	22.458257	0.000477	20.791383
223.055456	-2.991700	3.840700	-11.489000	22.512157	0.000477	20.771868
224.055110	-2.986400	3.841700	-11.473000	22.511165	0.000477	20.769926
225.060249	-3.004600	3.840000	-11.536000	22.510518	0.000479	20.767382
226.057801	-2.976300	3.842200	-11.435000	22.499896	0.000480	20.778082
227.057495	-3.012700	3.841700	-11.573000	22.533614	0.000478	20.796203
228.057720	-3.005600	3.841600	-11.546000	22.544602	0.000480	20.787293
229.060890	-3.009500	3.840400	-11.557000	22.548591	0.000480	20.767106
230.057827	-3.013100	3.840400	-11.571000	22.549587	0.000480	20.772845
231.058822	-2.987700	3.841500	-11.475000	22.555470	0.000481	20.774944
232.063103	-3.004900	3.841000	-11.541000	22.568302	0.000483	20.784003
233.057476	-2.988800	3.840500	-11.478000	22.571019	0.000482	20.791940
234.060501	-3.009100	3.840100	-11.554000	22.591104	0.000482	20.780288
235.063971	-2.985300	3.840200	-11.463000	22.588235	0.000483	20.783578
236.059909	-2.989500	3.840700	-11.480000	22.633838	0.000482	20.771407
237.062644	-3.007400	3.838300	-11.542000	22.592850	0.000482	20.776346
238.062615	-3.015400	3.839300	-11.576000	22.582558	0.000482	20.778841
239.060521	-3.013300	3.837500	-11.563000	22.587272	0.000484	20.784036
240.062231	-3.007200	3.838800	-11.542000	22.602771	0.000483	20.772059
241.063469	-2.989900	3.838500	-11.476000	22.611514	0.000484	20.771807
242.062405	-2.994300	3.838600	-11.493000	22.611589	0.000484	20.776623
243.065611	-2.999600	3.838000	-11.510000	22.621086	0.000485	20.786135
244.061390	-2.983100	3.836900	-11.445000	22.648962	0.000486	20.762847
245.060771	-2.983200	3.838400	-11.450000	22.653445	0.000484	20.793890
246.063431	-3.006700	3.837200	-11.536000	22.673356	0.000485	20.776376
247.061407	-3.016000	3.836400	-11.569000	22.693114	0.000487	20.775778
248.061640	-3.010500	3.837500	-11.552000	22.674302	0.000485	20.787755
249.062362	-2.969900	3.837600	-11.395000	22.675348	0.000486	20.787380
250.062387	-3.000300	3.835400	-11.506000	22.697773	0.000485	20.785661
251.061973	-2.976900	3.836000	-11.418000	22.701955	0.000486	20.798385
252.063262	-3.021200	3.835200	-11.586000	22.685268	0.000484	20.790679
253.063354	-3.013500	3.835800	-11.559000	22.696851	0.000487	20.787108
254.069000	-3.001700	3.835200	-11.511000	22.710806	0.000486	20.798715
255.064374	-2.998300	3.836500	-11.503000	22.720293	0.000487	20.786407
256.063357	-3.014900	3.835900	-11.564000	22.749019	0.000485	20.803328
257.065629	-2.967100	3.836800	-11.383000	22.771814	0.000487	20.791549
258.070711	-2.992400	3.836100	-11.478000	22.773139	0.000488	20.781023
259.068496	-2.992500	3.835500	-11.477000	22.769279	0.000490	20.785690
260.080315	-3.013400	3.834000	-11.552000	22.772543	0.000489	20.786589
261.070655	-3.006800	3.833600	-11.525000	22.776201	0.000491	20.790254
262.070199	-2.989400	3.833200	-11.458000	22.793616	0.000491	20.793000
263.069380	-3.003300	3.833100	-11.511000	22.790771	0.000493	20.776400
264.071646	-2.996900	3.833900	-11.489000	22.798353	0.000490	20.806281
265.068998	-2.993200	3.833300	-11.473000	22.799975	0.000492	20.809328
266.068713	-3.005000	3.833300	-11.518000	22.795193	0.000491	20.796951
267.067992	-2.997100	3.833000	-11.487000	22.798053	0.000493	20.793178
268.068705	-3.003600	3.832500	-11.510000	22.794892	0.000494	20.796175
269.083882	-3.013400	3.832600	-11.547000	22.782014	0.000493	20.796551
270.069194	-3.019800	3.832700	-11.573000	22.795139	0.000493	20.803061
271.073026	-3.010900	3.831500	-11.535000	22.809318	0.000492	20.806359
272.068879	-2.997500	3.831500	-11.484000	22.798831	0.000494	20.800121
