LabVIEW Measurement	
Writer_Version	2
Reader_Version	2
Separator	Tab
Decimal_Separator	.
Multi_Headings	No
X_Columns	One
Time_Pref	Absolute
Operator	admin
Description	Clolumns are: time, Current, Voltage, Power, Battery Temp, and Chamber Temp
Date	2024/08/16
Time	13:07:17.8513970375061035156
***End_of_Header***	
	
Channels	6						
Samples	1	1	1	1	1	1	
Date	2024/08/31	2024/08/31	2024/08/31	2024/08/31	2024/08/31	2024/08/31	
Time	16:03:42.486492156982421875	16:03:42.4916110038757324219	16:03:42.5006079673767089844	16:03:42.4683375358581542969	16:03:42.4683375358581542969	16:03:42.4683375358581542969	
X_Dimension	Time	Time	Time	Time	Time	Time	
X0	0.0000000000000000E+0	0.0000000000000000E+0	0.0000000000000000E+0	0.0000000000000000E+0	0.0000000000000000E+0	0.0000000000000000E+0	
Delta_X	1.000000	1.000000	1.000000	1.000000	1.000000	1.000000	
***End_of_Header***							
X_Value	Untitled	Untitled 1	Untitled 2	Untitled 3	Untitled 4	Untitled 5	Comment
0.000000	0.027621	4.088900	0.113100	20.737781	0.000457	20.692259
0.998847	-3.011100	3.926500	-11.821000	20.714571	0.000458	20.679481
1.998745	-3.011200	3.920200	-11.803000	20.717669	0.000456	20.714824
3.000144	-3.007900	3.916800	-11.780000	20.722902	0.000456	20.709625
3.998854	-3.018100	3.911900	-11.806000	20.735386	0.000454	20.698399
5.004238	-2.994800	3.911700	-11.714000	20.729320	0.000454	20.707033
6.000857	-3.022600	3.907700	-11.811000	20.734609	0.000455	20.693355
6.999844	-3.013700	3.906000	-11.770000	20.732116	0.000455	20.699871
7.999780	-3.006900	3.903900	-11.738000	20.751908	0.000452	20.688368
8.999714	-2.984100	3.902900	-11.646000	20.746488	0.000452	20.714244
9.999946	-2.970500	3.902100	-11.591000	20.749317	0.000451	20.679137
10.999687	-3.000500	3.898300	-11.695000	20.761458	0.000450	20.681321
12.002671	-3.005600	3.898100	-11.715000	20.774391	0.000449	20.686667
13.000668	-3.011200	3.896800	-11.733000	20.773221	0.000449	20.683127
14.002662	-3.021400	3.895700	-11.769000	20.788918	0.000449	20.695031
15.004464	-3.003400	3.894700	-11.696000	20.782901	0.000449	20.686643
16.004193	-3.013200	3.893600	-11.731000	20.787234	0.000447	20.693347
17.003327	-3.011700	3.892000	-11.720000	20.810672	0.000449	20.698293
18.005578	-3.008500	3.891100	-11.705000	20.812421	0.000449	20.688662
19.003154	-3.005200	3.891700	-11.695000	20.806127	0.000447	20.694696
20.010323	-3.008100	3.889500	-11.698000	20.812323	0.000447	20.667225
21.004925	-2.999800	3.889400	-11.667000	20.832736	0.000444	20.682424
22.004724	-3.009400	3.888300	-11.700000	20.831534	0.000446	20.685016
23.004512	-3.009200	3.888800	-11.700000	20.841491	0.000447	20.675532
24.006258	-2.991000	3.887800	-11.628000	20.858715	0.000445	20.668100
25.006208	-3.026500	3.885500	-11.758000	20.872955	0.000443	20.679972
26.008170	-3.006500	3.885500	-11.681000	20.860923	0.000446	20.688802
27.007028	-3.002600	3.885900	-11.666000	20.897283	0.000444	20.678222
28.006670	-2.996800	3.885500	-11.643000	20.881130	0.000444	20.712806
29.009490	-2.997200	3.885100	-11.644000	20.901100	0.000443	20.696266
30.007817	-3.004900	3.885200	-11.674000	20.912275	0.000443	20.685156
31.013846	-2.982200	3.883100	-11.579000	20.924855	0.000443	20.683986
32.009122	-3.011800	3.883200	-11.693000	20.911171	0.000442	20.695433
33.009807	-3.021000	3.883000	-11.730000	20.926579	0.000441	20.678124
34.012956	-3.024600	3.882100	-11.741000	20.938154	0.000444	20.697288
35.011022	-3.003100	3.880900	-11.654000	20.927667	0.000442	20.678738
36.012617	-3.000800	3.881500	-11.647000	20.953570	0.000440	20.681885
37.008680	-3.004900	3.881200	-11.660000	20.959578	0.000439	20.694533
38.011806	-3.013200	3.880600	-11.692000	20.972534	0.000440	20.667659
39.012020	-3.009300	3.880400	-11.676000	20.975852	0.000441	20.683782
40.011783	-2.985900	3.880000	-11.584000	20.980021	0.000440	20.693642
41.012432	-2.997900	3.879600	-11.630000	21.002531	0.000441	20.681542
42.013314	-2.996400	3.879600	-11.624000	21.009511	0.000438	20.695163
43.012920	-3.002500	3.879000	-11.645000	20.993744	0.000440	20.660423
44.013613	-2.972100	3.879100	-11.528000	21.030248	0.000440	20.677969
45.012421	-2.994400	3.877600	-11.610000	21.023129	0.000440	20.677013
46.013646	-2.999300	3.877300	-11.628000	21.034179	0.000440	20.673366
47.015889	-2.964800	3.879200	-11.501000	21.045679	0.000441	20.664479
48.013956	-3.010900	3.877500	-11.673000	21.043636	0.000439	20.679506
49.014925	-2.998000	3.876800	-11.622000	21.068515	0.000439	20.668828
50.014294	-3.002000	3.878200	-11.642000	21.053722	0.000439	20.667308
51.019192	-3.009300	3.875100	-11.660000	21.063701	0.000442	20.678713
52.016355	-3.022800	3.875800	-11.714000	21.085801	0.000439	20.669049
53.015990	-3.001100	3.875700	-11.631000	21.084625	0.000439	20.671192
54.015962	-3.005500	3.876000	-11.649000	21.096589	0.000436	20.666089
55.015521	-3.005100	3.876200	-11.648000	21.110623	0.000438	20.669221
56.018158	-3.012100	3.874600	-11.671000	21.115216	0.000438	20.645363
57.016942	-3.004800	3.875800	-11.645000	21.114700	0.000437	20.660497
58.018936	-2.987000	3.875200	-11.573000	21.113998	0.000439	20.658371
59.020088	-3.028300	3.874300	-11.729000	21.137854	0.000438	20.662320
60.016983	-3.020900	3.873800	-11.702000	21.129289	0.000440	20.663710
61.019830	-3.018300	3.873800	-11.691000	21.159528	0.000441	20.664086
62.016067	-3.003400	3.874900	-11.636000	21.167954	0.000438	20.650703
63.021434	-3.007000	3.875000	-11.651000	21.181994	0.000437	20.677079
64.016521	-3.009900	3.873200	-11.656000	21.182206	0.000437	20.664961
65.017089	-3.004100	3.873000	-11.634000	21.181030	0.000439	20.683226
66.016095	-2.999700	3.872400	-11.615000	21.207401	0.000439	20.665509
67.016133	-3.020600	3.873300	-11.698000	21.207622	0.000439	20.676162
68.016983	-2.996900	3.873800	-11.608000	21.218148	0.000438	20.666302
69.019466	-2.974000	3.873200	-11.518000	21.234917	0.000437	20.677389
70.016741	-2.967200	3.873500	-11.493000	21.218851	0.000439	20.667480
71.017146	-2.977100	3.873700	-11.531000	21.242542	0.000440	20.652297
72.020335	-3.008000	3.871300	-11.644000	21.244593	0.000438	20.664782
73.017441	-3.015300	3.870300	-11.669000	21.253590	0.000441	20.679948
74.019033	-3.001700	3.872100	-11.621000	21.278693	0.000441	20.672344
75.017268	-3.016600	3.871000	-11.676000	21.280933	0.000438	20.665101
76.019042	-2.996600	3.871300	-11.600000	21.272500	0.000439	20.669467
77.016627	-3.001400	3.869800	-11.614000	21.282624	0.000440	20.657783
78.016617	-2.994800	3.870700	-11.591000	21.285223	0.000441	20.673187
79.019804	-3.026000	3.869500	-11.708000	21.301705	0.000438	20.678771
80.020142	-3.012800	3.869100	-11.656000	21.304949	0.000440	20.654513
81.020586	-2.998200	3.870200	-11.603000	21.322657	0.000440	20.663695
82.020948	-2.994400	3.869500	-11.586000	21.340249	0.000439	20.683194
83.019407	-2.990000	3.871100	-11.573000	21.346108	0.000441	20.659182
84.023612	-2.985900	3.870600	-11.556000	21.335780	0.000441	20.684413
85.019242	-2.998100	3.870100	-11.602000	21.340364	0.000437	20.652960
86.019157	-2.976500	3.869200	-11.515000	21.350840	0.000439	20.680039
87.019994	-3.008200	3.868400	-11.635000	21.377510	0.000440	20.663572
88.021130	-3.002300	3.869000	-11.614000	21.386236	0.000440	20.671356
89.025613	-2.961700	3.870800	-11.463000	21.383491	0.000442	20.672402
90.020972	-3.005100	3.868200	-11.623000	21.399621	0.000439	20.660090
91.021070	-3.001200	3.869700	-11.612000	21.420529	0.000439	20.664415
92.031280	-3.002800	3.869100	-11.618000	21.413895	0.000442	20.679589
93.021326	-3.009100	3.866900	-11.634000	21.415071	0.000442	20.680766
94.020263	-3.002600	3.867600	-11.612000	21.442778	0.000441	20.704223
95.022606	-3.008600	3.868200	-11.636000	21.453105	0.000442	20.695115
96.019796	-3.003500	3.868600	-11.619000	21.451079	0.000441	20.673645
97.020515	-2.979100	3.868900	-11.525000	21.452884	0.000442	20.693471
98.026021	-3.002700	3.868600	-11.615000	21.446152	0.000443	20.672983
99.020868	-2.996000	3.867500	-11.587000	21.481432	0.000443	20.677464
100.025678	-3.002400	3.866900	-11.608000	21.478483	0.000445	20.683522
101.026858	-3.001500	3.866600	-11.605000	21.482289	0.000441	20.652714
102.022476	-2.991900	3.866800	-11.569000	21.485599	0.000443	20.660294
103.024065	-3.015200	3.866300	-11.656000	21.499194	0.000442	20.673899
104.022747	-3.013200	3.864900	-11.645000	21.500918	0.000443	20.668036
105.024524	-3.000200	3.866900	-11.600000	21.510117	0.000444	20.698582
106.022100	-3.006800	3.865500	-11.622000	21.508467	0.000445	20.675117
107.023569	-2.998100	3.865900	-11.590000	21.519570	0.000445	20.680063
108.023341	-3.016200	3.865400	-11.659000	21.534308	0.000445	20.670154
109.023116	-3.013600	3.863900	-11.642000	21.536906	0.000444	20.680815
110.025492	-2.993700	3.866000	-11.573000	21.548548	0.000442	20.683931
111.025642	-2.999200	3.866100	-11.594000	21.560910	0.000443	20.683024
112.024355	-2.995600	3.864900	-11.576000	21.564978	0.000444	20.697053
113.025615	-2.997600	3.865000	-11.585000	21.579446	0.000445	20.693513
114.028082	-3.002800	3.866300	-11.609000	21.608096	0.000445	20.696579
115.026231	-2.980800	3.864700	-11.519000	21.608766	0.000445	20.687291
116.029964	-2.984600	3.864200	-11.532000	21.584054	0.000446	20.688640
117.027761	-2.992100	3.864100	-11.560000	21.602484	0.000443	20.684798
118.028226	-3.000400	3.863400	-11.591000	21.618071	0.000446	20.695655
119.027635	-2.986000	3.863000	-11.533000	21.621461	0.000446	20.671544
120.026855	-2.984000	3.863600	-11.528000	21.644612	0.000447	20.682859
121.030264	-2.986900	3.863900	-11.540000	21.657127	0.000449	20.696333
122.031410	-2.990100	3.864500	-11.555000	21.669201	0.000448	20.677594
123.028760	-3.004400	3.863100	-11.606000	21.658051	0.000448	20.679712
124.029017	-3.019300	3.862300	-11.660000	21.697743	0.000449	20.687193
125.028951	-3.017400	3.862200	-11.653000	21.690457	0.000447	20.705981
126.030903	-3.017300	3.862600	-11.653000	21.679494	0.000447	20.685051
127.033537	-2.966500	3.863600	-11.460000	21.701141	0.000447	20.696284
128.032359	-2.986800	3.862100	-11.535000	21.679641	0.000448	20.700847
129.033087	-2.988500	3.862600	-11.543000	21.693455	0.000448	20.699972
130.034199	-3.005700	3.862300	-11.608000	21.721464	0.000449	20.684854
131.031047	-3.002600	3.862500	-11.596000	21.736944	0.000447	20.693235
132.037527	-3.019200	3.860800	-11.656000	21.719324	0.000447	20.673702
133.034466	-3.007300	3.861800	-11.613000	21.726684	0.000448	20.695295
134.045411	-3.004400	3.862200	-11.603000	21.752635	0.000450	20.680488
135.033401	-2.982800	3.861900	-11.518000	21.742114	0.000451	20.687977
136.035691	-2.999000	3.861600	-11.580000	21.745121	0.000451	20.713274
137.034165	-3.003000	3.861500	-11.595000	21.759186	0.000452	20.696530
138.038742	-3.012600	3.860500	-11.629000	21.806814	0.000450	20.693938
139.035488	-3.002700	3.860300	-11.589000	21.790609	0.000449	20.696211
140.037089	-2.995300	3.860900	-11.563000	21.787710	0.000451	20.713225
141.039838	-3.024100	3.859600	-11.671000	21.790960	0.000452	20.702727
142.036464	-2.997200	3.859800	-11.568000	21.808096	0.000452	20.693324
143.038496	-2.982000	3.859500	-11.508000	21.810261	0.000453	20.701655
144.036564	-2.992000	3.860600	-11.550000	21.832673	0.000453	20.697535
145.036885	-3.016500	3.858500	-11.638000	21.835099	0.000453	20.700911
146.036547	-3.024400	3.859500	-11.671000	21.850233	0.000454	20.698041
147.036237	-3.007700	3.858100	-11.603000	21.838260	0.000453	20.687004
148.039008	-3.003400	3.859400	-11.590000	21.856269	0.000452	20.705506
149.038894	-2.990500	3.859500	-11.541000	21.853647	0.000455	20.730859
150.036442	-3.009500	3.858100	-11.610000	21.882691	0.000451	20.690226
151.037889	-2.981800	3.859000	-11.506000	21.879751	0.000454	20.708621
152.037757	-2.976200	3.859300	-11.485000	21.880323	0.000454	20.719151
153.037166	-2.991600	3.858600	-11.542000	21.890369	0.000453	20.710240
154.036755	-2.995000	3.857800	-11.553000	21.898829	0.000457	20.692155
155.036757	-3.000700	3.856800	-11.572000	21.906278	0.000454	20.700086
156.037250	-3.002500	3.857800	-11.582000	21.950682	0.000455	20.698066
157.041078	-2.991800	3.858500	-11.543000	21.944468	0.000454	20.706070
158.039522	-3.017700	3.857700	-11.640000	21.968200	0.000457	20.709439
159.042415	-3.014000	3.857000	-11.624000	21.963945	0.000457	20.698540
160.040301	-3.023400	3.856900	-11.660000	21.950478	0.000457	20.703078
161.041040	-3.004000	3.858000	-11.589000	21.973141	0.000457	20.715333
162.040706	-2.998600	3.857500	-11.566000	21.961054	0.000457	20.707501
163.041136	-2.999700	3.857700	-11.570000	21.966085	0.000459	20.701631
164.039584	-3.002900	3.856500	-11.580000	21.962443	0.000462	20.702727
165.042134	-3.011400	3.855700	-11.610000	21.971369	0.000458	20.700756
166.039246	-2.978900	3.856600	-11.487000	22.004876	0.000459	20.705849
167.039600	-2.998700	3.855500	-11.560000	22.026232	0.000461	20.720591
168.046685	-3.001300	3.857200	-11.576000	22.022222	0.000459	20.708515
169.042679	-3.022900	3.855700	-11.655000	22.035444	0.000460	20.708949
170.043368	-3.008100	3.854400	-11.593000	22.051490	0.000460	20.716004
171.043740	-3.018800	3.855400	-11.637000	22.057019	0.000461	20.724384
172.043023	-3.010100	3.854800	-11.603000	22.078602	0.000462	20.716119
173.042604	-3.000300	3.855600	-11.567000	22.041553	0.000460	20.703210
174.044108	-3.011800	3.855000	-11.610000	22.059730	0.000461	20.724728
175.045503	-2.982500	3.855500	-11.498000	22.051475	0.000461	20.735430
176.045101	-3.002400	3.852900	-11.567000	22.058416	0.000464	20.712980
177.045127	-2.986300	3.855100	-11.511000	22.051148	0.000462	20.724197
178.046000	-3.016000	3.853700	-11.622000	22.045759	0.000464	20.703153
179.046017	-2.996400	3.853900	-11.546000	22.076667	0.000464	20.711337
180.046609	-3.028100	3.851900	-11.663000	22.079330	0.000463	20.730599
181.047900	-2.995900	3.853100	-11.543000	22.090648	0.000465	20.728653
182.045558	-2.992100	3.853100	-11.528000	22.086353	0.000464	20.715344
183.046934	-3.000200	3.852200	-11.556000	22.114019	0.000466	20.713643
184.047292	-3.009700	3.853000	-11.594000	22.120380	0.000467	20.712899
185.046465	-3.013500	3.852000	-11.607000	22.095523	0.000465	20.718835
186.050605	-3.019800	3.852100	-11.631000	22.115415	0.000465	20.719309
187.046510	-3.007500	3.851300	-11.581000	22.115758	0.000466	20.739094
188.046611	-2.999500	3.852900	-11.555000	22.147392	0.000465	20.742789
189.047153	-3.015100	3.850700	-11.610000	22.166826	0.000467	20.734745
190.046747	-2.999600	3.852100	-11.554000	22.139880	0.000467	20.712508
191.048748	-2.997000	3.851000	-11.540000	22.189835	0.000468	20.737868
192.049546	-2.991800	3.850800	-11.520000	22.202769	0.000469	20.721419
193.048366	-2.978100	3.851100	-11.468000	22.226015	0.000468	20.742798
194.047014	-2.999500	3.851700	-11.552000	22.239128	0.000470	20.729374
195.048962	-3.010900	3.849600	-11.590000	22.230056	0.000469	20.736887
196.046566	-3.013300	3.850000	-11.600000	22.242590	0.000469	20.745169
197.049520	-2.994600	3.851100	-11.531000	22.237471	0.000469	20.738621
198.046143	-3.004600	3.850800	-11.568000	22.224145	0.000469	20.733339
199.046803	-3.004200	3.850200	-11.566000	22.231918	0.000469	20.743019
200.051933	-2.988800	3.850400	-11.507000	22.224864	0.000470	20.745439
201.046157	-2.976800	3.849000	-11.456000	22.215515	0.000469	20.749355
202.048641	-2.996200	3.848900	-11.530000	22.264937	0.000471	20.742889
203.046655	-2.989600	3.850200	-11.509000	22.265035	0.000470	20.751522
204.049220	-2.989600	3.849500	-11.508000	22.270448	0.000471	20.741769
205.050314	-3.001100	3.849300	-11.551000	22.304665	0.000471	20.742366
206.047250	-3.013800	3.848000	-11.596000	22.309948	0.000474	20.744810
207.052712	-2.998600	3.848200	-11.539000	22.321231	0.000473	20.739039
208.047715	-3.011000	3.848200	-11.586000	22.304992	0.000474	20.764978
209.049994	-2.986000	3.848300	-11.490000	22.323623	0.000473	20.750443
210.046715	-3.000200	3.847500	-11.543000	22.339755	0.000472	20.761856
211.047306	-3.005500	3.846700	-11.560000	22.357030	0.000473	20.745014
212.046976	-2.992600	3.847600	-11.514000	22.349772	0.000475	20.734901
213.051332	-3.006100	3.847000	-11.563000	22.367839	0.000474	20.752045
214.046822	-3.002000	3.846400	-11.546000	22.387179	0.000475	20.737272
215.047090	-3.005500	3.846900	-11.560000	22.394298	0.000473	20.735393
216.054715	-3.026900	3.846100	-11.641000	22.367137	0.000476	20.758455
217.048948	-2.996900	3.846300	-11.525000	22.390665	0.000475	20.745505
218.052246	-2.998000	3.844900	-11.526000	22.400609	0.000477	20.757834
219.048652	-3.003200	3.846600	-11.550000	22.371848	0.000475	20.750844
220.048666	-3.001800	3.845600	-11.543000	22.368558	0.000477	20.757507
221.049253	-3.005100	3.845500	-11.555000	22.363994	0.000476	20.754834
222.048495	-3.023200	3.845300	-11.624000	22.347103	0.000477	20.764946
223.051528	-2.994100	3.846000	-11.514000	22.387123	0.000479	20.744328
224.049657	-3.003500	3.843700	-11.544000	22.432455	0.000477	20.755586
225.049358	-3.009200	3.844700	-11.569000	22.466479	0.000477	20.762158
226.053121	-3.001700	3.843700	-11.536000	22.462430	0.000478	20.768061
227.049429	-3.009000	3.843600	-11.565000	22.447949	0.000478	20.744549
228.051736	-2.993900	3.845100	-11.511000	22.444071	0.000478	20.762477
229.052278	-2.990100	3.843600	-11.493000	22.482063	0.000480	20.749315
230.050054	-2.989400	3.843500	-11.489000	22.452414	0.000476	20.763246
231.049630	-2.982800	3.844600	-11.467000	22.465377	0.000481	20.752520
232.052449	-3.026900	3.842900	-11.631000	22.467688	0.000481	20.737763
233.050089	-2.998200	3.843700	-11.524000	22.494135	0.000479	20.754768
234.053359	-2.988200	3.842700	-11.481000	22.511172	0.000481	20.754286
235.050326	-2.989400	3.843000	-11.488000	22.494128	0.000482	20.757131
236.050274	-2.989900	3.842900	-11.489000	22.496421	0.000483	20.761325
237.051281	-2.993900	3.841600	-11.500000	22.509833	0.000483	20.784714
238.050017	-2.980200	3.843400	-11.452000	22.522665	0.000481	20.765796
239.049753	-2.994200	3.841100	-11.500000	22.530566	0.000483	20.763752
240.052176	-2.981600	3.842500	-11.456000	22.537260	0.000484	20.755283
241.051489	-2.997800	3.841100	-11.513000	22.527718	0.000484	20.767538
242.052297	-2.987000	3.841400	-11.474000	22.501229	0.000483	20.778468
243.056930	-3.002100	3.842300	-11.535000	22.544492	0.000486	20.783864
244.054393	-2.990800	3.840900	-11.486000	22.559266	0.000485	20.780643
245.058242	-2.998200	3.841100	-11.516000	22.554002	0.000485	20.779163
246.054470	-3.008300	3.839700	-11.549000	22.547300	0.000487	20.763442
247.054798	-3.019900	3.839400	-11.594000	22.578872	0.000485	20.767088
248.056736	-2.997200	3.839400	-11.506000	22.549447	0.000486	20.782188
249.053551	-2.982000	3.840900	-11.452000	22.555128	0.000486	20.766066
250.056642	-2.991500	3.839400	-11.485000	22.555552	0.000485	20.783561
251.060122	-2.988300	3.839500	-11.473000	22.558442	0.000487	20.761325
252.057823	-3.001200	3.839300	-11.522000	22.609872	0.000486	20.773007
253.057476	-2.995400	3.838400	-11.496000	22.609913	0.000487	20.775419
254.057425	-2.980100	3.839600	-11.441000	22.628082	0.000489	20.772280
255.056585	-3.000300	3.838300	-11.516000	22.675070	0.000490	20.773351
256.059481	-2.998400	3.838100	-11.507000	22.660795	0.000489	20.775174
257.056307	-2.990400	3.838600	-11.477000	22.644773	0.000490	20.785679
258.057758	-2.981300	3.837300	-11.439000	22.650969	0.000489	20.776237
259.057516	-2.978100	3.837600	-11.427000	22.668467	0.000487	20.790445
260.057134	-2.989300	3.836200	-11.467000	22.655229	0.000491	20.772918
261.057763	-2.964700	3.838400	-11.378000	22.644716	0.000488	20.787519
262.057570	-3.003100	3.837100	-11.523000	22.674474	0.000491	20.786979
263.058177	-3.004300	3.837200	-11.527000	22.691736	0.000490	20.780087
264.057950	-2.983600	3.835800	-11.443000	22.722855	0.000490	20.772378
265.059721	-3.005500	3.836700	-11.530000	22.737007	0.000491	20.783234
266.063109	-2.996900	3.836500	-11.497000	22.725916	0.000491	20.786349
267.060817	-3.022200	3.837000	-11.595000	22.726536	0.000492	20.778436
268.060699	-2.996600	3.834900	-11.491000	22.730151	0.000491	20.793437
269.060886	-3.002700	3.836800	-11.520000	22.742189	0.000490	20.789848
270.061559	-3.030800	3.834700	-11.621000	22.722602	0.000495	20.788720
271.061642	-3.003200	3.836300	-11.520000	22.741340	0.000495	20.774773
272.061988	-2.978600	3.834700	-11.421000	22.769349	0.000493	20.786709
