LabVIEW Measurement	
Writer_Version	2
Reader_Version	2
Separator	Tab
Decimal_Separator	.
Multi_Headings	No
X_Columns	One
Time_Pref	Absolute
Operator	admin
Description	Clolumns are: time, Current, Voltage, Power, Battery Temp, and Chamber Temp
Date	2024/08/16
Time	13:07:17.8513970375061035156
***End_of_Header***	
	
Channels	6						
Samples	1	1	1	1	1	1	
Date	2024/09/04	2024/09/04	2024/09/04	2024/09/04	2024/09/04	2024/09/04	
Time	20:48:59.7150526046752929688	20:48:59.7210407257080078125	20:48:59.7280430793762207031	20:48:59.6977734565734863281	20:48:59.6987895965576171875	20:48:59.6987895965576171875	
X_Dimension	Time	Time	Time	Time	Time	Time	
X0	0.0000000000000000E+0	0.0000000000000000E+0	0.0000000000000000E+0	0.0000000000000000E+0	0.0000000000000000E+0	0.0000000000000000E+0	
Delta_X	1.000000	1.000000	1.000000	1.000000	1.000000	1.000000	
***End_of_Header***							
X_Value	Untitled	Untitled 1	Untitled 2	Untitled 3	Untitled 4	Untitled 5	Comment
0.000000	-0.003715	4.087600	-0.015071	20.790359	0.000458	20.856264
1.000435	-3.004800	3.923200	-11.788000	20.784514	0.000456	20.859429
2.000675	-2.993700	3.918000	-11.728000	20.789479	0.000455	20.853489
3.000194	-3.006600	3.913400	-11.765000	20.800983	0.000455	20.861673
4.000006	-3.012900	3.909200	-11.778000	20.800007	0.000456	20.852163
4.999924	-3.011100	3.907400	-11.765000	20.794466	0.000454	20.869855
6.003132	-2.991000	3.905000	-11.679000	20.813606	0.000450	20.855804
6.999957	-3.003700	3.901200	-11.717000	20.836765	0.000454	20.875169
8.001967	-2.988700	3.900100	-11.656000	20.827329	0.000453	20.870001
9.001932	-2.981400	3.899000	-11.623000	20.834990	0.000451	20.869127
10.000660	-3.014400	3.895400	-11.742000	20.856723	0.000452	20.859567
11.001354	-3.004800	3.894900	-11.703000	20.848467	0.000451	20.878336
12.004288	-2.993000	3.894800	-11.656000	20.842179	0.000450	20.863040
13.005789	-3.021600	3.891500	-11.758000	20.867854	0.000447	20.880655
14.001384	-3.010100	3.891000	-11.711000	20.881956	0.000449	20.862991
15.002433	-3.013700	3.889400	-11.721000	20.862991	0.000448	20.870577
16.002356	-2.983000	3.890000	-11.603000	20.881779	0.000447	20.870400
17.004010	-2.988700	3.888400	-11.621000	20.898974	0.000447	20.871001
18.004133	-2.987700	3.886800	-11.613000	20.904515	0.000446	20.861844
19.005226	-2.990100	3.887200	-11.622000	20.913975	0.000446	20.873675
20.004096	-2.992200	3.886600	-11.629000	20.921086	0.000448	20.889795
21.003741	-3.027200	3.883400	-11.755000	20.919239	0.000446	20.877518
22.002835	-3.023600	3.884500	-11.743000	20.912329	0.000446	20.884831
23.012533	-2.975400	3.883900	-11.555000	20.955899	0.000445	20.871034
24.005334	-2.995300	3.883300	-11.631000	20.960389	0.000446	20.894015
25.006556	-2.987500	3.883100	-11.599000	20.943898	0.000444	20.864722
26.005590	-2.981800	3.882300	-11.575000	20.972393	0.000444	20.870461
27.007010	-3.000800	3.881300	-11.647000	20.968253	0.000443	20.865846
28.006374	-3.013200	3.880400	-11.691000	20.978683	0.000444	20.865372
29.011271	-2.981900	3.880900	-11.571000	21.006179	0.000445	20.890500
30.010954	-3.024600	3.880800	-11.736000	21.002637	0.000443	20.876528
31.010169	-3.028300	3.878700	-11.745000	21.016934	0.000444	20.869490
32.010220	-2.992800	3.878800	-11.607000	21.023722	0.000443	20.893822
33.008403	-2.982900	3.878900	-11.569000	21.027164	0.000444	20.891101
34.007947	-2.995400	3.878300	-11.616000	21.048221	0.000443	20.889877
35.013541	-2.988000	3.877500	-11.586000	21.045054	0.000441	20.888133
36.008600	-3.012500	3.877500	-11.681000	21.042384	0.000442	20.879772
37.010100	-3.010900	3.877900	-11.675000	21.059102	0.000441	20.890804
38.012319	-3.015200	3.875000	-11.683000	21.060450	0.000443	20.892151
39.010326	-3.004500	3.875800	-11.643000	21.093534	0.000441	20.903905
40.013781	-2.981100	3.875700	-11.553000	21.094680	0.000443	20.895570
41.016527	-3.004900	3.874100	-11.640000	21.096325	0.000442	20.887733
42.013400	-2.992700	3.875800	-11.598000	21.095551	0.000443	20.895492
43.012504	-3.011000	3.874100	-11.664000	21.094504	0.000443	20.883540
44.017282	-2.986700	3.874400	-11.570000	21.122496	0.000442	20.904900
45.014293	-3.026600	3.873300	-11.721000	21.128008	0.000443	20.913732
46.016095	-2.980700	3.874900	-11.548000	21.128408	0.000443	20.893745
47.019843	-2.997800	3.874000	-11.612000	21.136344	0.000442	20.897890
48.016653	-3.009000	3.871800	-11.650000	21.141633	0.000442	20.904128
49.036319	-3.000900	3.871300	-11.616000	21.153880	0.000441	20.884138
50.020397	-3.019100	3.873100	-11.693000	21.170393	0.000441	20.894018
51.016398	-3.009100	3.872400	-11.652000	21.193220	0.000441	20.890773
52.019463	-3.019000	3.872900	-11.691000	21.207139	0.000440	20.904222
53.021641	-3.006100	3.871200	-11.636000	21.187008	0.000443	20.890250
54.017684	-2.993000	3.872500	-11.590000	21.207089	0.000441	20.908440
55.017140	-2.991500	3.871400	-11.580000	21.232161	0.000441	20.905545
56.019547	-2.996900	3.871500	-11.602000	21.237870	0.000441	20.897508
57.020849	-3.010500	3.870000	-11.650000	21.255829	0.000442	20.903619
58.020149	-3.007900	3.869900	-11.639000	21.247849	0.000442	20.921238
59.020632	-3.001400	3.871700	-11.619000	21.276959	0.000443	20.922859
60.018161	-2.996700	3.869300	-11.594000	21.252660	0.000441	20.908035
61.020976	-2.976900	3.869600	-11.518000	21.277180	0.000443	20.906011
62.019947	-3.019300	3.868600	-11.679000	21.274237	0.000440	20.904490
63.019466	-3.001800	3.869700	-11.615000	21.300748	0.000440	20.924372
64.024393	-2.998500	3.869500	-11.602000	21.291371	0.000440	20.905510
65.026141	-2.972200	3.870400	-11.503000	21.302520	0.000442	20.919507
66.025272	-2.997900	3.868100	-11.595000	21.326390	0.000440	20.908302
67.023849	-3.009400	3.867900	-11.639000	21.340807	0.000440	20.925569
68.025375	-3.002400	3.868400	-11.614000	21.340206	0.000440	20.914063
69.022541	-3.005900	3.868600	-11.628000	21.357565	0.000440	20.945652
70.025225	-3.020900	3.868000	-11.684000	21.340256	0.000443	20.921699
71.028632	-2.984900	3.868000	-11.544000	21.359957	0.000440	20.931451
72.026747	-2.980600	3.868600	-11.529000	21.358761	0.000441	20.931749
73.028123	-2.970600	3.867900	-11.489000	21.375696	0.000440	20.917327
74.028629	-2.972300	3.868300	-11.497000	21.369458	0.000442	20.927206
75.023726	-3.004900	3.866600	-11.618000	21.382675	0.000439	20.921939
76.026087	-3.004900	3.867500	-11.620000	21.410559	0.000443	20.925181
77.028111	-2.976600	3.866900	-11.508000	21.394793	0.000441	20.915098
78.023571	-2.980200	3.866800	-11.523000	21.436571	0.000443	20.908535
79.027963	-3.002000	3.867100	-11.608000	21.431532	0.000442	20.912975
80.028391	-2.996700	3.866200	-11.584000	21.423875	0.000439	20.910056
81.024445	-3.005500	3.866000	-11.618000	21.438588	0.000443	20.927620
82.032076	-3.001100	3.865700	-11.601000	21.448013	0.000442	20.912871
83.026972	-2.996100	3.865300	-11.579000	21.471457	0.000442	20.909301
84.023645	-3.003700	3.865800	-11.611000	21.487616	0.000442	20.921675
85.030852	-3.007500	3.865600	-11.624000	21.491856	0.000443	20.927340
86.026956	-3.012000	3.865200	-11.640000	21.495972	0.000443	20.915338
87.024196	-3.003600	3.864500	-11.607000	21.485869	0.000442	20.918505
88.027400	-3.016000	3.864200	-11.653000	21.529712	0.000442	20.903108
89.028390	-2.998700	3.866100	-11.592000	21.509656	0.000443	20.902006
90.024905	-2.970300	3.864900	-11.479000	21.522696	0.000443	20.921690
91.029734	-3.010900	3.864800	-11.636000	21.529553	0.000443	20.911009
92.026900	-2.993400	3.864800	-11.568000	21.528680	0.000446	20.906342
93.024922	-2.995200	3.865300	-11.577000	21.526807	0.000442	20.897356
94.024803	-3.009500	3.865000	-11.631000	21.521644	0.000444	20.914000
95.025827	-3.004700	3.863300	-11.607000	21.569175	0.000445	20.905612
96.027820	-2.991700	3.864100	-11.560000	21.557927	0.000444	20.904788
97.028075	-2.960900	3.864500	-11.442000	21.571417	0.000443	20.905011
98.031620	-2.983700	3.864900	-11.531000	21.585332	0.000444	20.896651
99.029024	-3.020500	3.862800	-11.666000	21.594310	0.000444	20.922228
100.030069	-2.998300	3.864200	-11.585000	21.601837	0.000447	20.885193
101.032503	-2.981000	3.862800	-11.514000	21.595625	0.000445	20.907898
102.030195	-2.990300	3.863400	-11.551000	21.611137	0.000444	20.908722
103.031913	-2.982900	3.862700	-11.521000	21.626200	0.000446	20.906726
104.032139	-2.985200	3.863400	-11.532000	21.609391	0.000445	20.904130
105.029216	-2.994200	3.861600	-11.561000	21.633101	0.000446	20.897038
106.029605	-2.996700	3.862000	-11.572000	21.653901	0.000448	20.896043
107.034071	-2.996500	3.862600	-11.573000	21.644750	0.000447	20.898264
108.031792	-3.016900	3.862200	-11.651000	21.657315	0.000447	20.891872
109.032451	-2.999500	3.860600	-11.578000	21.688511	0.000448	20.891324
110.032795	-2.979100	3.861300	-11.502000	21.675267	0.000447	20.913629
111.032675	-3.001500	3.862100	-11.591000	21.705267	0.000446	20.909040
112.036866	-2.988800	3.862500	-11.544000	21.706361	0.000447	20.915824
113.035960	-2.996100	3.860900	-11.566000	21.713567	0.000448	20.904544
114.032623	-2.990800	3.860100	-11.544000	21.718453	0.000447	20.877195
115.032694	-2.991100	3.860400	-11.546000	21.743387	0.000449	20.891242
116.039830	-3.010800	3.860600	-11.622000	21.738074	0.000448	20.911053
117.034450	-3.000100	3.859800	-11.579000	21.762335	0.000449	20.871326
118.035933	-3.007200	3.860200	-11.608000	21.771810	0.000447	20.886498
119.033614	-2.995200	3.860700	-11.562000	21.769940	0.000448	20.885101
120.034110	-2.998500	3.859000	-11.570000	21.752359	0.000448	20.873196
121.032536	-3.023000	3.859900	-11.667000	21.769265	0.000448	20.891537
122.032394	-2.999500	3.860800	-11.579000	21.795892	0.000449	20.887841
123.035664	-2.979900	3.861300	-11.506000	21.764401	0.000450	20.901841
124.032532	-2.994700	3.858900	-11.554000	21.778286	0.000451	20.900091
125.035074	-2.994700	3.858300	-11.553000	21.792774	0.000449	20.874764
126.034308	-2.995800	3.858900	-11.560000	21.807832	0.000450	20.886990
127.035557	-2.990300	3.859300	-11.539000	21.794190	0.000450	20.870492
128.034919	-3.004700	3.859500	-11.596000	21.822843	0.000450	20.883048
129.038999	-3.006000	3.859200	-11.599000	21.827354	0.000449	20.876658
130.034659	-3.003800	3.858300	-11.589000	21.839520	0.000452	20.879352
131.038912	-3.016300	3.857300	-11.634000	21.830365	0.000451	20.853595
132.039421	-2.990800	3.858400	-11.539000	21.879183	0.000451	20.883490
133.037395	-2.992400	3.858400	-11.544000	21.841013	0.000451	20.888432
134.037770	-3.000400	3.857500	-11.573000	21.855696	0.000453	20.875154
135.042006	-3.007100	3.855700	-11.592000	21.860235	0.000452	20.875904
136.038563	-2.988600	3.857700	-11.529000	21.882298	0.000453	20.873806
137.039352	-3.022400	3.856200	-11.653000	21.890872	0.000452	20.880965
138.041877	-3.002600	3.857300	-11.581000	21.892043	0.000454	20.869335
139.040164	-3.001500	3.858100	-11.579000	21.920288	0.000454	20.872952
140.040100	-2.980700	3.856300	-11.494000	21.925248	0.000453	20.852788
141.042018	-3.009000	3.855500	-11.600000	21.929088	0.000454	20.871329
142.039332	-3.009500	3.855400	-11.602000	21.945664	0.000456	20.879861
143.039055	-2.996500	3.855300	-11.552000	21.956435	0.000455	20.873573
144.041842	-3.007100	3.855600	-11.594000	21.955510	0.000456	20.868854
145.037253	-2.992200	3.856400	-11.539000	21.959173	0.000456	20.883899
146.038444	-2.986100	3.856600	-11.515000	22.000778	0.000455	20.869125
147.042429	-3.007600	3.854400	-11.592000	22.013617	0.000456	20.856373
148.038350	-3.001700	3.855700	-11.573000	22.013614	0.000454	20.853526
149.043850	-3.021700	3.854300	-11.646000	22.034802	0.000457	20.878528
150.048733	-2.992200	3.854300	-11.532000	22.033480	0.000456	20.868196
151.042351	-3.011100	3.853400	-11.602000	22.031310	0.000454	20.863654
152.043930	-2.994400	3.854500	-11.541000	22.030413	0.000455	20.872238
153.046106	-2.997900	3.853700	-11.551000	22.027692	0.000458	20.846282
154.044929	-2.994500	3.852900	-11.537000	22.045016	0.000457	20.856512
155.042661	-3.004700	3.854100	-11.580000	22.024201	0.000458	20.868864
156.047258	-3.007700	3.854900	-11.593000	22.041299	0.000457	20.873653
157.046453	-3.005500	3.854400	-11.583000	22.058725	0.000458	20.848899
158.044855	-3.021000	3.851100	-11.633000	22.034892	0.000458	20.865342
159.049547	-2.992100	3.853400	-11.528000	22.063235	0.000461	20.862897
160.045497	-2.981800	3.854400	-11.492000	22.052691	0.000458	20.834325
161.050147	-3.002500	3.852900	-11.567000	22.065051	0.000460	20.857602
162.049445	-2.985300	3.854000	-11.504000	22.078513	0.000460	20.861596
163.044565	-2.957400	3.853600	-11.396000	22.095038	0.000460	20.840682
164.047754	-2.994800	3.852900	-11.538000	22.105309	0.000459	20.864240
165.047987	-3.004400	3.851500	-11.570000	22.107327	0.000460	20.859149
166.044095	-2.994900	3.851000	-11.533000	22.129284	0.000460	20.857423
167.048138	-3.009300	3.851400	-11.590000	22.147207	0.000461	20.860194
168.048900	-3.002600	3.852100	-11.565000	22.155233	0.000460	20.845471
169.046094	-3.004500	3.850300	-11.568000	22.140227	0.000460	20.828077
170.048897	-2.984900	3.851400	-11.495000	22.142069	0.000462	20.865481
171.047406	-2.984100	3.851500	-11.492000	22.175471	0.000462	20.841551
172.046004	-3.012400	3.850700	-11.599000	22.193440	0.000463	20.857644
173.046176	-3.016100	3.850800	-11.613000	22.195659	0.000464	20.836634
174.053841	-2.977200	3.850300	-11.462000	22.221006	0.000463	20.861063
175.046014	-3.011800	3.850200	-11.595000	22.247823	0.000463	20.853775
176.052590	-3.005200	3.849600	-11.568000	22.231395	0.000462	20.848706
177.048615	-2.996600	3.849500	-11.535000	22.243110	0.000465	20.831513
178.051806	-3.004600	3.849200	-11.564000	22.245076	0.000462	20.842964
179.047017	-3.024900	3.848100	-11.639000	22.218433	0.000464	20.835728
180.048018	-2.994300	3.850000	-11.527000	22.249785	0.000465	20.838195
181.048818	-2.979500	3.849700	-11.469000	22.262893	0.000466	20.838518
182.049808	-2.990800	3.848600	-11.509000	22.264343	0.000464	20.844712
183.053570	-2.964400	3.850600	-11.413000	22.265608	0.000464	20.845504
184.050368	-2.989300	3.848500	-11.504000	22.254342	0.000465	20.846551
185.050590	-2.987600	3.849400	-11.499000	22.302093	0.000466	20.828931
186.051341	-3.004700	3.847300	-11.558000	22.313158	0.000464	20.855657
187.049203	-3.005400	3.847800	-11.563000	22.301743	0.000466	20.841857
188.051016	-2.999500	3.848500	-11.542000	22.304009	0.000465	20.830376
189.052836	-3.006000	3.846700	-11.561000	22.314799	0.000467	20.831223
190.051425	-2.997100	3.847700	-11.530000	22.292119	0.000466	20.832695
191.053330	-3.004700	3.847100	-11.559000	22.305800	0.000468	20.837859
192.056488	-2.981600	3.848000	-11.471000	22.308192	0.000467	20.830297
193.053939	-3.007900	3.846800	-11.570000	22.325688	0.000468	20.832643
194.054659	-2.977100	3.847000	-11.452000	22.328254	0.000469	20.839954
195.056990	-3.017600	3.845400	-11.602000	22.343203	0.000467	20.844018
196.058432	-2.974500	3.846400	-11.441000	22.360002	0.000469	20.847562
197.058824	-3.010500	3.846600	-11.579000	22.368324	0.000472	20.845465
198.058709	-3.000600	3.845100	-11.537000	22.357260	0.000471	20.834860
199.058826	-2.990800	3.845800	-11.501000	22.353593	0.000473	20.830715
200.063480	-3.008600	3.845400	-11.568000	22.382576	0.000471	20.852150
201.056341	-2.987800	3.846600	-11.492000	22.390799	0.000471	20.819608
202.058656	-3.017800	3.844400	-11.601000	22.425736	0.000470	20.841791
203.063989	-3.012700	3.844600	-11.581000	22.393911	0.000471	20.841690
204.060524	-2.998900	3.845700	-11.532000	22.397173	0.000473	20.849224
205.063294	-2.960900	3.845700	-11.386000	22.411678	0.000473	20.839093
206.061013	-2.984500	3.844000	-11.472000	22.382468	0.000473	20.825016
207.063036	-2.976400	3.844800	-11.443000	22.392860	0.000474	20.799861
208.059706	-2.984100	3.844900	-11.472000	22.394330	0.000473	20.831204
209.062037	-2.996200	3.843300	-11.513000	22.389742	0.000473	20.843204
210.066188	-3.012800	3.843000	-11.577000	22.386777	0.000473	20.836916
211.061503	-3.017500	3.842500	-11.594000	22.414636	0.000476	20.830676
212.065995	-2.999600	3.843500	-11.528000	22.414336	0.000476	20.820893
213.066134	-2.999400	3.842400	-11.524000	22.444012	0.000474	20.827377
214.062376	-3.000600	3.842300	-11.529000	22.421907	0.000474	20.827526
215.069423	-2.995000	3.842400	-11.507000	22.481463	0.000475	20.827424
216.064671	-2.984500	3.843300	-11.469000	22.480015	0.000475	20.825027
217.062698	-3.007300	3.841200	-11.551000	22.511139	0.000477	20.838178
218.065600	-3.001500	3.842200	-11.531000	22.515398	0.000475	20.831064
219.070560	-3.010300	3.841600	-11.562000	22.491973	0.000475	20.814243
220.066304	-3.002700	3.841500	-11.534000	22.510262	0.000477	20.830662
221.067677	-2.999200	3.840900	-11.518000	22.513175	0.000477	20.825993
222.067708	-3.006000	3.841400	-11.547000	22.519253	0.000477	20.802683
223.066792	-2.995500	3.840600	-11.503000	22.533479	0.000478	20.829732
224.066869	-2.997200	3.840400	-11.510000	22.544769	0.000477	20.830134
225.068194	-2.983100	3.841500	-11.459000	22.539259	0.000479	20.817978
226.067654	-2.978800	3.840200	-11.438000	22.565122	0.000478	20.835345
227.069706	-2.989700	3.840600	-11.482000	22.552188	0.000479	20.818124
228.069883	-3.020900	3.840700	-11.602000	22.553085	0.000478	20.810014
229.068733	-2.995100	3.840500	-11.502000	22.579446	0.000479	20.813182
230.070207	-3.003300	3.840800	-11.534000	22.567734	0.000478	20.831798
231.069342	-3.007500	3.840000	-11.547000	22.585325	0.000479	20.827131
232.068671	-3.005800	3.839700	-11.541000	22.587291	0.000480	20.812030
233.076046	-3.000000	3.839400	-11.518000	22.583876	0.000481	20.822834
234.070582	-3.012500	3.837700	-11.560000	22.587688	0.000481	20.839928
235.074678	-3.004400	3.838000	-11.530000	22.600172	0.000480	20.821613
236.072787	-3.015000	3.837700	-11.569000	22.590677	0.000483	20.823008
237.077174	-3.011800	3.836700	-11.555000	22.622643	0.000483	20.823256
238.076499	-2.995200	3.837700	-11.494000	22.641626	0.000484	20.799597
239.074595	-2.986300	3.838700	-11.463000	22.649225	0.000484	20.815742
240.076754	-2.990200	3.837800	-11.473000	22.650519	0.000483	20.814194
241.078400	-3.004900	3.836900	-11.529000	22.647354	0.000485	20.786368
242.081288	-3.013900	3.837000	-11.564000	22.640826	0.000484	20.813968
243.077374	-3.006500	3.836000	-11.533000	22.654327	0.000485	20.836973
244.076362	-2.984100	3.836900	-11.449000	22.653333	0.000486	20.809899
245.076227	-2.994400	3.836300	-11.486000	22.673936	0.000485	20.818682
246.076241	-2.988100	3.836000	-11.461000	22.686068	0.000486	20.795747
247.078698	-2.992100	3.836400	-11.477000	22.700841	0.000486	20.818131
248.078055	-2.996700	3.835500	-11.493000	22.693090	0.000487	20.796142
249.078925	-3.000900	3.835000	-11.507000	22.706272	0.000486	20.807449
250.077132	-3.002800	3.836000	-11.518000	22.716609	0.000488	20.803580
251.079648	-2.999600	3.835500	-11.504000	22.735367	0.000489	20.810990
252.079754	-3.018800	3.833800	-11.573000	22.753602	0.000489	20.808867
253.078233	-2.991000	3.835300	-11.470000	22.762122	0.000489	20.816928
254.079528	-2.987400	3.835300	-11.457000	22.760576	0.000489	20.819172
255.078963	-2.999300	3.834300	-11.498000	22.739301	0.000490	20.806869
256.080625	-3.013800	3.833400	-11.552000	22.755219	0.000489	20.807642
257.081347	-2.980100	3.833100	-11.422000	22.743457	0.000491	20.809610
258.082004	-3.005300	3.833600	-11.520000	22.752998	0.000492	20.807314
259.081210	-3.009400	3.832400	-11.532000	22.755539	0.000491	20.808911
260.085231	-3.013400	3.832000	-11.546000	22.750729	0.000491	20.796032
261.082706	-3.014000	3.832900	-11.552000	22.759824	0.000490	20.788547
262.083466	-3.019200	3.831900	-11.568000	22.773645	0.000493	20.789116
263.079715	-3.001200	3.832400	-11.501000	22.778953	0.000490	20.799649
264.081438	-3.016800	3.832700	-11.562000	22.802991	0.000489	20.781529
265.082482	-3.027200	3.831000	-11.597000	22.791181	0.000493	20.814743
266.083204	-3.008200	3.831800	-11.525000	22.776285	0.000493	20.799346
267.082495	-3.001300	3.831000	-11.497000	22.806077	0.000491	20.784147
268.083402	-3.001000	3.832700	-11.500000	22.814171	0.000492	20.793203
269.083848	-2.985400	3.831800	-11.439000	22.839951	0.000492	20.778726
270.084994	-2.999800	3.830600	-11.490000	22.849268	0.000492	20.808448
271.085856	-3.001100	3.830900	-11.496000	22.860925	0.000494	20.783616
272.084784	-2.987800	3.830900	-11.444000	22.888401	0.000493	20.788857
