LabVIEW Measurement	
Writer_Version	2
Reader_Version	2
Separator	Tab
Decimal_Separator	.
Multi_Headings	No
X_Columns	One
Time_Pref	Absolute
Operator	admin
Description	Clolumns are: time, Current, Voltage, Power, Battery Temp, and Chamber Temp
Date	2024/08/16
Time	13:07:17.8513970375061035156
***End_of_Header***	
	
Channels	6						
Samples	1	1	1	1	1	1	
Date	2024/08/28	2024/08/28	2024/08/28	2024/08/28	2024/08/28	2024/08/28	
Time	16:56:40.1543421745300292969	16:56:40.1602487564086914062	16:56:40.1652445793151855469	16:56:40.1378817558288574219	16:56:40.1378817558288574219	16:56:40.1378817558288574219	
X_Dimension	Time	Time	Time	Time	Time	Time	
X0	0.0000000000000000E+0	0.0000000000000000E+0	0.0000000000000000E+0	0.0000000000000000E+0	0.0000000000000000E+0	0.0000000000000000E+0	
Delta_X	1.000000	1.000000	1.000000	1.000000	1.000000	1.000000	
***End_of_Header***							
X_Value	Untitled	Untitled 1	Untitled 2	Untitled 3	Untitled 4	Untitled 5	Comment
0.000000	0.015505	4.089400	0.063409	20.768728	0.000453	20.651604
1.009704	-2.997100	3.929900	-11.778000	20.762490	0.000450	20.653427
2.020310	-3.005400	3.923900	-11.791000	20.766308	0.000449	20.643493
3.015125	-2.966400	3.920500	-11.628000	20.765957	0.000448	20.647409
4.014096	-2.985000	3.917900	-11.694000	20.776986	0.000451	20.654171
5.018113	-2.996100	3.912600	-11.722000	20.782374	0.000448	20.638220
6.018966	-3.000500	3.911400	-11.736000	20.788162	0.000448	20.652545
7.002823	-2.992400	3.909500	-11.697000	20.792275	0.000447	20.656658
8.000803	-2.994100	3.906800	-11.696000	20.786364	0.000446	20.646953
9.001093	-3.002400	3.905300	-11.724000	20.808993	0.000448	20.651565
10.019568	-3.006600	3.902600	-11.732000	20.799566	0.000445	20.628385
11.019633	-2.982000	3.902700	-11.637000	20.818328	0.000446	20.670386
12.024300	-3.007700	3.899200	-11.726000	20.815656	0.000444	20.639734
13.026554	-2.995800	3.899000	-11.680000	20.833828	0.000443	20.645105
14.021209	-3.002600	3.897700	-11.702000	20.837596	0.000443	20.652194
15.027072	-3.010800	3.896200	-11.730000	20.834597	0.000443	20.663420
16.021835	-3.005700	3.895100	-11.706000	20.832528	0.000442	20.643806
17.025606	-2.990400	3.896200	-11.651000	20.835046	0.000441	20.645850
18.005543	-2.990200	3.895500	-11.647000	20.846826	0.000442	20.640086
19.004698	-2.990000	3.892600	-11.638000	20.873149	0.000444	20.650764
20.021353	-2.984900	3.893500	-11.620000	20.863716	0.000440	20.648917
21.005170	-2.984600	3.891600	-11.613000	20.884405	0.000442	20.671981
22.006812	-2.996700	3.891500	-11.661000	20.881469	0.000441	20.639169
23.023080	-3.004500	3.888900	-11.683000	20.895008	0.000439	20.644649
24.022812	-3.012200	3.890700	-11.719000	20.907563	0.000441	20.649619
25.032003	-3.003300	3.888500	-11.677000	20.903468	0.000438	20.639359
26.025915	-2.992500	3.888500	-11.636000	20.923356	0.000438	20.649767
27.028259	-3.012600	3.886500	-11.708000	20.923731	0.000441	20.634968
28.026114	-2.987200	3.887300	-11.612000	20.935658	0.000439	20.631248
29.027163	-2.986700	3.887400	-11.609000	20.933084	0.000438	20.656177
30.022462	-3.003800	3.886200	-11.672000	20.971934	0.000440	20.653782
31.023547	-3.009000	3.885300	-11.690000	20.949867	0.000438	20.638821
32.023994	-3.006300	3.886300	-11.683000	20.948132	0.000438	20.649890
33.033675	-3.004000	3.884600	-11.668000	20.937122	0.000437	20.650259
34.025424	-2.997000	3.885600	-11.644000	20.972728	0.000438	20.643195
35.009502	-3.004900	3.884000	-11.670000	20.989992	0.000437	20.665679
36.029346	-2.987300	3.883600	-11.600000	21.016613	0.000437	20.669547
37.010136	-2.978300	3.883400	-11.565000	21.010327	0.000436	20.633858
38.010604	-2.991800	3.883400	-11.617000	20.998051	0.000434	20.663782
39.012061	-2.978300	3.883900	-11.567000	21.009527	0.000435	20.647283
40.009450	-2.982500	3.883200	-11.581000	21.031351	0.000436	20.652043
41.017117	-2.968500	3.883300	-11.527000	21.046465	0.000435	20.654358
42.014980	-2.994100	3.882100	-11.623000	21.024135	0.000435	20.662371
43.011645	-2.997400	3.880700	-11.631000	21.041416	0.000435	20.635081
44.013958	-2.988400	3.881900	-11.599000	21.059984	0.000434	20.652707
45.011417	-2.997500	3.881700	-11.634000	21.070905	0.000435	20.652251
46.019205	-2.973000	3.880600	-11.536000	21.077257	0.000433	20.631575
47.012590	-2.993500	3.879100	-11.611000	21.080225	0.000434	20.664419
48.011035	-2.993100	3.879500	-11.610000	21.082374	0.000434	20.653765
49.029755	-3.016900	3.878700	-11.700000	21.090401	0.000432	20.651363
50.027378	-2.972400	3.880400	-11.533000	21.111332	0.000434	20.667559
51.033497	-3.027400	3.877200	-11.737000	21.098828	0.000434	20.652680
52.033756	-2.979300	3.878400	-11.553000	21.123249	0.000435	20.651503
53.041291	-3.027900	3.879100	-11.745000	21.127810	0.000434	20.656541
54.033338	-2.995100	3.877500	-11.613000	21.128383	0.000433	20.642887
55.017914	-2.996700	3.878300	-11.620000	21.147108	0.000433	20.655930
56.015423	-2.990000	3.879100	-11.597000	21.156016	0.000433	20.665315
57.014764	-2.996800	3.877600	-11.620000	21.168986	0.000435	20.644622
58.019462	-3.006300	3.877900	-11.657000	21.166764	0.000435	20.667532
59.014493	-3.008100	3.875800	-11.658000	21.200485	0.000435	20.649579
60.018149	-3.023100	3.875700	-11.716000	21.188536	0.000434	20.660862
61.015181	-3.006400	3.876200	-11.652000	21.198034	0.000434	20.659931
62.031151	-3.004800	3.877300	-11.650000	21.210105	0.000434	20.660152
63.017962	-2.990600	3.876100	-11.591000	21.213725	0.000435	20.663774
64.031426	-3.003200	3.875800	-11.638000	21.222256	0.000434	20.681319
65.015820	-3.007400	3.874100	-11.650000	21.220427	0.000434	20.651511
66.014872	-3.016300	3.874400	-11.685000	21.257545	0.000432	20.659721
67.014721	-2.995300	3.875900	-11.609000	21.261817	0.000436	20.659253
68.019470	-2.985500	3.876300	-11.572000	21.264900	0.000434	20.668028
69.016104	-2.989200	3.874100	-11.579000	21.273905	0.000435	20.661863
70.017388	-2.991900	3.873800	-11.589000	21.270310	0.000435	20.690987
71.036578	-2.979100	3.874400	-11.542000	21.291983	0.000435	20.692279
72.016138	-2.994800	3.873700	-11.600000	21.299664	0.000435	20.656813
73.021646	-2.986900	3.874600	-11.573000	21.296136	0.000435	20.677941
74.020640	-2.994200	3.872800	-11.596000	21.307697	0.000435	20.660107
75.016482	-2.995500	3.873700	-11.603000	21.310723	0.000435	20.664084
76.018212	-2.982700	3.874900	-11.557000	21.326241	0.000436	20.681033
77.017800	-2.990900	3.871900	-11.579000	21.335818	0.000432	20.656472
78.018477	-2.990200	3.873000	-11.580000	21.368519	0.000435	20.677812
79.018569	-3.018500	3.872900	-11.690000	21.371650	0.000435	20.689007
80.017602	-3.003800	3.872500	-11.632000	21.361624	0.000436	20.678026
81.021004	-3.006900	3.872400	-11.643000	21.369909	0.000434	20.682996
82.019650	-3.003100	3.872400	-11.629000	21.391351	0.000435	20.670309
83.018783	-3.003500	3.871000	-11.626000	21.396441	0.000434	20.674928
84.021834	-2.998400	3.871900	-11.608000	21.393745	0.000434	20.693095
85.021691	-2.993400	3.872100	-11.590000	21.412049	0.000434	20.671103
86.018968	-3.021400	3.870900	-11.694000	21.408633	0.000433	20.681911
87.021276	-3.009000	3.870700	-11.646000	21.405414	0.000434	20.683432
88.040874	-2.991800	3.871400	-11.581000	21.436611	0.000434	20.695207
89.046723	-3.000900	3.871200	-11.615000	21.428450	0.000437	20.699369
90.051156	-2.983400	3.871100	-11.548000	21.437910	0.000434	20.690342
91.046006	-3.003100	3.872100	-11.628000	21.454285	0.000433	20.684441
92.045367	-2.986000	3.871700	-11.560000	21.465652	0.000435	20.694867
93.059370	-2.990900	3.870100	-11.574000	21.460766	0.000435	20.701358
94.024113	-2.993100	3.870900	-11.584000	21.491266	0.000437	20.692994
95.044178	-3.006600	3.869800	-11.633000	21.495007	0.000436	20.684410
96.041023	-3.027300	3.868300	-11.709000	21.514078	0.000435	20.698752
97.047259	-2.994900	3.870600	-11.591000	21.503284	0.000435	20.699331
98.046842	-2.982000	3.870900	-11.542000	21.517026	0.000438	20.694589
99.050799	-3.017500	3.869100	-11.674000	21.534707	0.000436	20.659172
100.032640	-2.998600	3.869900	-11.604000	21.525229	0.000438	20.697108
101.030302	-2.987800	3.870000	-11.562000	21.515272	0.000438	20.688091
102.042803	-2.992800	3.869400	-11.580000	21.542755	0.000436	20.693782
103.035016	-2.976500	3.869800	-11.517000	21.546300	0.000439	20.665084
104.027627	-3.010400	3.868500	-11.645000	21.542170	0.000438	20.707895
105.043971	-2.999700	3.868200	-11.603000	21.573671	0.000438	20.684888
106.028320	-2.982500	3.869000	-11.538000	21.612174	0.000440	20.703979
107.028120	-2.983200	3.867700	-11.537000	21.595713	0.000437	20.696989
108.054475	-3.002400	3.867900	-11.612000	21.584913	0.000439	20.704675
109.036127	-3.005000	3.868000	-11.623000	21.594292	0.000441	20.688454
110.036439	-3.002000	3.866800	-11.607000	21.598721	0.000440	20.694784
111.055082	-3.012400	3.867400	-11.649000	21.610714	0.000442	20.688292
112.046232	-2.994700	3.867600	-11.581000	21.644306	0.000440	20.700098
113.046203	-2.983300	3.868600	-11.540000	21.659240	0.000440	20.706983
114.054644	-3.022500	3.867700	-11.688000	21.658963	0.000439	20.687738
115.049926	-3.014100	3.865900	-11.651000	21.638238	0.000442	20.701138
116.032479	-3.012400	3.866800	-11.647000	21.667263	0.000441	20.687035
117.033600	-2.987700	3.867000	-11.553000	21.690244	0.000442	20.701975
118.031329	-3.021300	3.865900	-11.678000	21.683783	0.000442	20.706415
119.037871	-3.011900	3.866000	-11.643000	21.684934	0.000443	20.715628
120.031267	-3.002300	3.866200	-11.607000	21.688268	0.000442	20.697626
121.032155	-2.986900	3.865900	-11.547000	21.693277	0.000442	20.711174
122.032184	-2.998900	3.865800	-11.591000	21.725912	0.000443	20.718705
123.054840	-3.029500	3.865600	-11.709000	21.712769	0.000443	20.714561
124.032590	-2.992000	3.865400	-11.565000	21.715433	0.000443	20.712011
125.037344	-3.008100	3.865500	-11.627000	21.724452	0.000443	20.703493
126.033203	-2.989900	3.864200	-11.553000	21.734542	0.000444	20.702686
127.033616	-2.998700	3.863700	-11.586000	21.755788	0.000442	20.717786
128.038554	-2.978200	3.864900	-11.510000	21.767028	0.000444	20.713389
129.033167	-2.992900	3.865000	-11.567000	21.776097	0.000443	20.721517
130.055380	-2.977400	3.865500	-11.508000	21.785947	0.000441	20.698657
131.049813	-2.986200	3.864200	-11.538000	21.796387	0.000444	20.717643
132.054168	-2.979100	3.864500	-11.512000	21.817035	0.000446	20.699901
133.058949	-3.012600	3.863700	-11.639000	21.806754	0.000444	20.718061
134.054071	-2.992600	3.863500	-11.561000	21.831708	0.000445	20.719329
135.063333	-3.002200	3.864500	-11.601000	21.816499	0.000446	20.717858
136.034742	-3.011700	3.863300	-11.634000	21.847088	0.000445	20.730931
137.043494	-2.992500	3.863300	-11.560000	21.824693	0.000446	20.695237
138.039933	-2.993700	3.863700	-11.566000	21.848847	0.000448	20.715147
139.040075	-2.980900	3.862600	-11.513000	21.855879	0.000446	20.726928
140.036011	-3.013800	3.863300	-11.642000	21.840639	0.000445	20.724002
141.059554	-2.995600	3.864200	-11.575000	21.865469	0.000444	20.716138
142.065668	-2.993900	3.861700	-11.561000	21.872378	0.000447	20.716889
143.052583	-2.976200	3.862600	-11.495000	21.857939	0.000447	20.728990
144.054072	-2.989500	3.863400	-11.548000	21.876260	0.000448	20.718403
145.066121	-3.029000	3.861100	-11.694000	21.891615	0.000448	20.725713
146.040075	-2.984600	3.862100	-11.526000	21.894310	0.000448	20.723195
147.054066	-2.989100	3.861600	-11.542000	21.904756	0.000447	20.736022
148.037120	-3.016100	3.861500	-11.646000	21.916714	0.000448	20.740880
149.063822	-3.015800	3.861100	-11.643000	21.930704	0.000449	20.724537
150.061808	-3.014700	3.859500	-11.634000	21.936511	0.000448	20.722763
151.060932	-3.002100	3.860400	-11.588000	21.932371	0.000449	20.736637
152.056639	-3.014500	3.859900	-11.636000	21.929774	0.000450	20.744470
153.041363	-2.991100	3.862200	-11.551000	21.982359	0.000449	20.749218
154.051988	-3.001100	3.860600	-11.584000	21.985699	0.000451	20.743553
155.042586	-3.003700	3.860000	-11.593000	21.972535	0.000452	20.745548
156.041311	-2.960800	3.862000	-11.433000	21.976805	0.000452	20.735597
157.043612	-2.973900	3.861000	-11.482000	21.982562	0.000451	20.737568
158.040353	-3.010800	3.860000	-11.621000	22.000789	0.000452	20.748228
159.044887	-2.966300	3.861100	-11.452000	22.002653	0.000452	20.742032
160.042115	-2.984900	3.861500	-11.525000	22.025812	0.000452	20.739138
161.041807	-3.003700	3.858300	-11.588000	22.026311	0.000454	20.727782
162.043647	-2.990800	3.859900	-11.543000	22.047361	0.000453	20.733208
163.042250	-2.988700	3.858300	-11.530000	22.058027	0.000454	20.731083
164.042243	-3.001100	3.858900	-11.580000	22.027468	0.000454	20.747908
165.042811	-2.999000	3.858700	-11.571000	22.049428	0.000455	20.734329
166.043322	-3.005900	3.857400	-11.593000	22.051255	0.000454	20.752280
167.048440	-3.019400	3.857500	-11.646000	22.069197	0.000454	20.736577
168.046765	-2.984700	3.858600	-11.516000	22.061767	0.000455	20.743837
169.041884	-3.003600	3.857600	-11.586000	22.067155	0.000455	20.748758
170.050318	-2.982200	3.859400	-11.509000	22.091728	0.000456	20.763875
171.078193	-3.015000	3.857300	-11.628000	22.111048	0.000456	20.761880
172.059277	-2.984800	3.858900	-11.517000	22.090030	0.000457	20.765969
173.045856	-3.002200	3.857000	-11.578000	22.094324	0.000459	20.734705
174.044775	-3.027300	3.855300	-11.670000	22.106287	0.000457	20.746682
175.043533	-3.008900	3.856600	-11.604000	22.127126	0.000456	20.740518
176.046809	-2.995700	3.856100	-11.550000	22.117955	0.000456	20.737500
177.043724	-3.010000	3.855600	-11.605000	22.138991	0.000459	20.747181
178.062407	-2.998100	3.856900	-11.563000	22.149508	0.000458	20.744908
179.048247	-2.999000	3.856200	-11.564000	22.135977	0.000457	20.741318
180.044333	-2.997400	3.855600	-11.556000	22.157289	0.000459	20.780674
181.063854	-3.009300	3.856200	-11.603000	22.151304	0.000459	20.741491
182.063595	-3.012600	3.855400	-11.614000	22.139243	0.000462	20.749804
183.062324	-3.011400	3.855300	-11.609000	22.175801	0.000459	20.752267
184.048477	-2.998200	3.855200	-11.557000	22.179338	0.000458	20.752488
185.047402	-2.997600	3.855200	-11.555000	22.198404	0.000458	20.754508
186.047290	-3.009300	3.855200	-11.601000	22.209148	0.000463	20.767163
187.049732	-2.991700	3.854400	-11.529000	22.208527	0.000461	20.775076
188.046904	-2.996400	3.853600	-11.546000	22.229912	0.000463	20.749071
189.047787	-2.989200	3.856400	-11.526000	22.235317	0.000463	20.751639
190.046883	-3.026600	3.852600	-11.659000	22.226369	0.000462	20.764016
191.066643	-3.008300	3.853800	-11.592000	22.230575	0.000463	20.763960
192.056081	-2.959400	3.854100	-11.405000	22.252531	0.000463	20.757968
193.065315	-2.986000	3.853500	-11.506000	22.254604	0.000463	20.761466
194.067770	-2.988700	3.853900	-11.518000	22.278625	0.000465	20.760863
195.067178	-3.002000	3.852500	-11.564000	22.277696	0.000463	20.763725
196.077535	-3.005200	3.853500	-11.580000	22.266829	0.000466	20.768492
197.050728	-2.984700	3.853300	-11.500000	22.290229	0.000464	20.778646
198.052536	-3.033700	3.851600	-11.684000	22.301545	0.000463	20.757734
199.058246	-3.012000	3.851900	-11.601000	22.297756	0.000464	20.777648
200.055512	-2.999500	3.852100	-11.554000	22.291840	0.000466	20.775517
201.051263	-3.011700	3.852700	-11.601000	22.313924	0.000467	20.758749
202.068306	-3.025200	3.851200	-11.650000	22.312773	0.000467	20.757597
203.069925	-3.006100	3.851600	-11.578000	22.328603	0.000466	20.777241
204.069783	-3.009000	3.851900	-11.590000	22.328922	0.000468	20.789890
205.078034	-2.979600	3.851800	-11.476000	22.320374	0.000466	20.758570
206.073377	-2.991200	3.850900	-11.518000	22.349203	0.000468	20.775110
207.069083	-3.000600	3.851500	-11.555000	22.345913	0.000467	20.765651
208.082607	-2.993400	3.851200	-11.527000	22.365376	0.000467	20.775184
209.067266	-3.019500	3.850300	-11.626000	22.376186	0.000469	20.791699
210.053296	-3.005600	3.851400	-11.575000	22.377908	0.000468	20.783940
211.069597	-2.992600	3.849200	-11.518000	22.383135	0.000467	20.778742
212.054506	-2.990800	3.851000	-11.516000	22.375117	0.000470	20.799162
213.070303	-3.021700	3.849500	-11.630000	22.402432	0.000470	20.783842
214.068135	-2.974400	3.850300	-11.451000	22.402130	0.000472	20.783066
215.072844	-3.030800	3.849700	-11.667000	22.396933	0.000472	20.795879
216.059811	-2.989600	3.850000	-11.509000	22.421474	0.000472	20.808127
217.054357	-2.999900	3.848500	-11.544000	22.412491	0.000474	20.795338
218.053670	-2.971300	3.850000	-11.438000	22.423018	0.000476	20.789758
219.053618	-2.985300	3.850200	-11.492000	22.439694	0.000473	20.807881
220.054465	-3.012900	3.847900	-11.593000	22.448308	0.000473	20.788532
221.058407	-3.004100	3.848700	-11.561000	22.454193	0.000473	20.804383
222.055283	-2.996900	3.850100	-11.537000	22.475443	0.000475	20.784887
223.057721	-2.987200	3.849200	-11.498000	22.482324	0.000476	20.799838
224.057054	-3.000700	3.848100	-11.546000	22.482668	0.000476	20.789277
225.057037	-3.002300	3.847500	-11.551000	22.465967	0.000475	20.788673
226.057056	-2.996700	3.847100	-11.527000	22.487869	0.000473	20.797805
227.081094	-2.992800	3.847900	-11.515000	22.496367	0.000475	20.802522
228.083527	-2.993200	3.846700	-11.513000	22.496564	0.000477	20.806986
229.073793	-3.000300	3.847300	-11.543000	22.508270	0.000476	20.811598
230.075821	-3.014600	3.847100	-11.595000	22.527085	0.000477	20.815743
231.089112	-3.005500	3.845600	-11.556000	22.546212	0.000475	20.808346
232.072659	-2.980300	3.846700	-11.463000	22.545013	0.000476	20.811887
233.077071	-2.969100	3.847100	-11.422000	22.576063	0.000476	20.799836
234.073824	-2.994400	3.846500	-11.517000	22.561208	0.000477	20.811511
235.059120	-3.002300	3.844900	-11.543000	22.546581	0.000477	20.822940
236.058242	-3.021000	3.845200	-11.615000	22.594716	0.000477	20.829424
237.060658	-2.998400	3.844300	-11.526000	22.623741	0.000479	20.815347
238.062963	-2.966300	3.846000	-11.407000	22.609139	0.000480	20.810205
239.060127	-2.998600	3.843500	-11.524000	22.622542	0.000477	20.801818
240.061378	-2.997200	3.844600	-11.523000	22.622461	0.000480	20.832557
241.075553	-3.012400	3.843300	-11.576000	22.623629	0.000479	20.837520
242.095859	-2.999100	3.843300	-11.526000	22.636706	0.000478	20.801306
243.061780	-2.989000	3.843900	-11.488000	22.618741	0.000481	20.799434
244.062599	-3.009200	3.843000	-11.563000	22.642608	0.000480	20.814330
245.059041	-3.000500	3.844000	-11.533000	22.683220	0.000480	20.818024
246.067834	-3.004600	3.844400	-11.550000	22.675566	0.000480	20.832168
247.060062	-2.986500	3.843600	-11.478000	22.693203	0.000481	20.843671
248.064219	-2.997800	3.842500	-11.519000	22.700980	0.000481	20.822538
249.062831	-2.988500	3.842100	-11.481000	22.701717	0.000482	20.812845
250.062108	-2.986700	3.843300	-11.478000	22.687836	0.000482	20.801311
251.065586	-2.984300	3.843600	-11.470000	22.677330	0.000484	20.833461
252.062177	-3.011900	3.840300	-11.565000	22.705953	0.000483	20.822777
253.065399	-2.989000	3.842900	-11.486000	22.697352	0.000481	20.832654
254.061074	-2.981200	3.842900	-11.455000	22.687682	0.000484	20.835769
255.060965	-3.007000	3.842000	-11.552000	22.699197	0.000484	20.816010
256.061191	-3.007500	3.840500	-11.549000	22.723166	0.000484	20.815363
257.064732	-2.993500	3.840800	-11.496000	22.718039	0.000483	20.848159
258.062603	-3.001000	3.841300	-11.527000	22.733026	0.000482	20.830930
259.065022	-2.983700	3.840900	-11.459000	22.739001	0.000484	20.842604
260.062436	-2.986500	3.839400	-11.465000	22.728293	0.000488	20.831878
261.080543	-2.980100	3.839800	-11.442000	22.737409	0.000487	20.835320
262.079421	-3.009900	3.838400	-11.553000	22.748198	0.000486	20.825739
263.090492	-2.972900	3.839400	-11.413000	22.733924	0.000486	20.835622
264.081572	-3.007200	3.839700	-11.546000	22.740796	0.000486	20.841083
265.084532	-3.012300	3.840400	-11.568000	22.761777	0.000487	20.826065
266.078511	-2.990500	3.839600	-11.482000	22.764919	0.000488	20.836324
267.078824	-3.016000	3.838300	-11.575000	22.762976	0.000488	20.839594
268.063616	-3.008300	3.838700	-11.547000	22.788161	0.000486	20.842063
269.076111	-2.988400	3.839400	-11.473000	22.796109	0.000488	20.833904
270.063933	-2.986400	3.838600	-11.462000	22.806080	0.000488	20.834884
271.062848	-3.012500	3.837000	-11.558000	22.818934	0.000488	20.844914
272.063837	-3.004700	3.836400	-11.526000	22.814649	0.000487	20.851053
