LabVIEW Measurement	
Writer_Version	2
Reader_Version	2
Separator	Tab
Decimal_Separator	.
Multi_Headings	No
X_Columns	One
Time_Pref	Absolute
Operator	admin
Description	Clolumns are: time, Current, Voltage, Power, Battery Temp, and Chamber Temp
Date	2024/08/16
Time	13:07:17.8513970375061035156
***End_of_Header***	
	
Channels	6						
Samples	1	1	1	1	1	1	
Date	2024/09/05	2024/09/05	2024/09/05	2024/09/05	2024/09/05	2024/09/05	
Time	19:15:13.1477632522583007812	19:15:13.1527681350708007812	19:15:13.1587648391723632812	19:15:13.1319246292114257812	19:15:13.1319246292114257812	19:15:13.1319246292114257812	
X_Dimension	Time	Time	Time	Time	Time	Time	
X0	0.0000000000000000E+0	0.0000000000000000E+0	0.0000000000000000E+0	0.0000000000000000E+0	0.0000000000000000E+0	0.0000000000000000E+0	
Delta_X	1.000000	1.000000	1.000000	1.000000	1.000000	1.000000	
***End_of_Header***							
X_Value	Untitled	Untitled 1	Untitled 2	Untitled 3	Untitled 4	Untitled 5	Comment
0.000000	0.026523	4.091300	0.108610	20.814062	0.000464	20.898457
1.000687	-3.005800	3.925100	-11.798000	20.810817	0.000463	20.867714
2.004973	-3.003200	3.918400	-11.767000	20.803634	0.000463	20.882341
3.003775	-3.038000	3.912800	-11.886000	20.795273	0.000462	20.882040
4.004279	-2.996900	3.911500	-11.721000	20.816861	0.000462	20.869964
5.003159	-2.990500	3.907100	-11.683000	20.814292	0.000461	20.861706
5.999678	-2.995700	3.905400	-11.698000	20.835356	0.000457	20.863329
7.002068	-3.004900	3.903600	-11.729000	20.822678	0.000460	20.850178
8.003224	-3.003800	3.901500	-11.718000	20.830614	0.000460	20.868071
9.003269	-3.014000	3.898500	-11.749000	20.841495	0.000458	20.879899
10.005375	-3.000600	3.898600	-11.696000	20.827699	0.000456	20.877956
11.001333	-3.008000	3.895500	-11.717000	20.845493	0.000458	20.865406
12.003029	-3.007000	3.894600	-11.710000	20.847414	0.000457	20.890085
13.002099	-3.012100	3.893200	-11.725000	20.864210	0.000457	20.858995
14.004634	-2.992300	3.892000	-11.645000	20.867257	0.000455	20.868205
15.006138	-2.998300	3.891400	-11.666000	20.874747	0.000455	20.868583
16.004806	-3.037900	3.890400	-11.818000	20.882581	0.000453	20.869779
17.004546	-3.010100	3.890100	-11.709000	20.890966	0.000454	20.870105
18.010962	-2.988500	3.889300	-11.622000	20.910557	0.000454	20.857930
19.006807	-3.003700	3.888500	-11.679000	20.916695	0.000453	20.854112
20.010747	-3.008500	3.887400	-11.694000	20.909732	0.000453	20.849993
21.007192	-2.983200	3.885400	-11.590000	20.906689	0.000454	20.863071
22.006214	-2.988900	3.885900	-11.613000	20.928148	0.000455	20.844703
23.008079	-2.994800	3.884700	-11.633000	20.948163	0.000450	20.881788
24.007321	-2.993200	3.885200	-11.628000	20.951308	0.000452	20.849374
25.009321	-2.982300	3.882900	-11.579000	20.980305	0.000449	20.860831
26.012020	-2.978500	3.883400	-11.566000	20.955306	0.000450	20.843415
27.006672	-2.987100	3.883200	-11.599000	20.967232	0.000448	20.848231
28.007326	-2.999400	3.882400	-11.643000	20.978086	0.000449	20.851974
29.009409	-3.001200	3.880200	-11.644000	20.986496	0.000452	20.833833
30.008029	-3.002600	3.880000	-11.650000	20.994159	0.000448	20.846713
31.011717	-2.988800	3.880200	-11.596000	21.002915	0.000450	20.852151
32.008037	-2.989000	3.879500	-11.595000	21.010451	0.000449	20.843567
33.018652	-2.995100	3.878500	-11.615000	21.013744	0.000450	20.856818
34.006434	-2.979600	3.879000	-11.557000	21.022504	0.000448	20.843295
35.006213	-2.988900	3.877800	-11.589000	21.024623	0.000448	20.839725
36.018032	-3.002400	3.877700	-11.641000	21.052797	0.000448	20.838033
37.008234	-3.008800	3.877200	-11.664000	21.051075	0.000449	20.857172
38.010178	-3.006400	3.877300	-11.655000	21.058910	0.000448	20.846518
39.009073	-2.984400	3.876200	-11.567000	21.065823	0.000447	20.847742
40.007922	-2.996100	3.876100	-11.612000	21.090321	0.000447	20.831470
41.011991	-3.002700	3.875800	-11.637000	21.074731	0.000446	20.829152
42.010842	-3.028700	3.874400	-11.733000	21.086783	0.000446	20.847845
43.010745	-2.988300	3.874700	-11.578000	21.089451	0.000449	20.847668
44.010461	-3.012200	3.875200	-11.672000	21.102225	0.000447	20.854755
45.011405	-3.009400	3.875100	-11.661000	21.117772	0.000447	20.830005
46.017914	-2.987800	3.873900	-11.573000	21.125381	0.000445	20.835245
47.013312	-2.995000	3.874400	-11.602000	21.117970	0.000445	20.843953
48.012412	-2.979700	3.874900	-11.545000	21.147762	0.000445	20.850520
49.014690	-3.015200	3.873000	-11.675000	21.167918	0.000446	20.813785
50.013383	-2.996800	3.872000	-11.603000	21.161409	0.000445	20.839516
51.014277	-3.028600	3.872000	-11.725000	21.157515	0.000444	20.841310
52.016506	-3.017400	3.871000	-11.679000	21.182867	0.000444	20.832057
53.017312	-3.002200	3.872800	-11.626000	21.190203	0.000446	20.819481
54.016298	-3.018700	3.871600	-11.686000	21.192297	0.000444	20.821102
55.014561	-2.999700	3.870800	-11.610000	21.226901	0.000443	20.831537
56.016427	-3.024800	3.870300	-11.705000	21.218370	0.000442	20.850976
57.016249	-3.012700	3.870900	-11.660000	21.202085	0.000444	20.825203
58.019949	-2.997700	3.870700	-11.602000	21.217896	0.000441	20.838174
59.017324	-3.010000	3.869400	-11.646000	21.250176	0.000443	20.833483
60.017121	-2.995300	3.870000	-11.591000	21.255294	0.000444	20.835758
61.016603	-2.995500	3.870200	-11.592000	21.257091	0.000443	20.828072
62.019004	-2.999400	3.869700	-11.606000	21.280789	0.000442	20.818590
63.021254	-2.996800	3.871000	-11.600000	21.259637	0.000445	20.823508
64.017575	-3.001600	3.869800	-11.614000	21.279169	0.000445	20.808908
65.018251	-3.003300	3.869300	-11.620000	21.273534	0.000443	20.801375
66.022941	-3.024700	3.868800	-11.701000	21.309056	0.000443	20.826480
67.020344	-3.002600	3.868900	-11.616000	21.297561	0.000444	20.808816
68.023859	-2.994900	3.869900	-11.589000	21.326220	0.000444	20.827057
69.021781	-2.994900	3.868300	-11.584000	21.318789	0.000443	20.822942
70.022302	-3.004800	3.867700	-11.620000	21.340318	0.000444	20.825040
71.022062	-2.993900	3.867800	-11.578000	21.326273	0.000444	20.793445
72.022490	-3.003500	3.867700	-11.616000	21.338298	0.000444	20.811640
73.027162	-2.994900	3.868500	-11.585000	21.332236	0.000444	20.830231
74.024526	-2.996600	3.867300	-11.586000	21.347204	0.000444	20.807274
75.024344	-3.026900	3.868700	-11.710000	21.383919	0.000445	20.818402
76.023203	-3.012800	3.868300	-11.654000	21.376863	0.000445	20.813713
77.023402	-3.007300	3.867800	-11.631000	21.379830	0.000444	20.822372
78.023368	-3.011000	3.866300	-11.641000	21.372025	0.000443	20.801286
79.024806	-3.038600	3.866400	-11.747000	21.416770	0.000446	20.812864
80.024035	-3.010400	3.866400	-11.638000	21.428918	0.000444	20.824070
81.025005	-3.021800	3.865700	-11.680000	21.434506	0.000445	20.809273
82.026285	-3.009100	3.866000	-11.632000	21.406521	0.000444	20.808300
83.021105	-2.994000	3.866500	-11.576000	21.442286	0.000443	20.811842
84.027648	-2.992000	3.865700	-11.564000	21.458299	0.000444	20.810794
85.023062	-2.997700	3.865300	-11.586000	21.442937	0.000445	20.800639
86.023647	-2.996800	3.865300	-11.583000	21.447149	0.000445	20.813388
87.025740	-2.986000	3.866800	-11.545000	21.461097	0.000443	20.810274
88.022711	-3.009900	3.863800	-11.628000	21.454434	0.000444	20.807875
89.026093	-3.004400	3.865400	-11.612000	21.479200	0.000445	20.815111
90.024665	-2.997500	3.865400	-11.585000	21.496560	0.000446	20.796920
91.023285	-2.988300	3.864600	-11.548000	21.490003	0.000447	20.815490
92.023846	-3.005000	3.864000	-11.610000	21.496061	0.000447	20.796895
93.025621	-3.002800	3.865000	-11.605000	21.528538	0.000447	20.804262
94.026308	-2.982500	3.865100	-11.527000	21.514093	0.000446	20.786014
95.026555	-2.995300	3.862800	-11.569000	21.532000	0.000446	20.808201
96.027562	-2.995700	3.863500	-11.572000	21.531180	0.000446	20.809750
97.027240	-2.981600	3.864900	-11.523000	21.539285	0.000448	20.798894
98.025922	-2.996300	3.864300	-11.577000	21.569508	0.000447	20.815861
99.026144	-3.006600	3.863600	-11.615000	21.566838	0.000445	20.807974
100.028674	-3.001600	3.862900	-11.593000	21.593896	0.000444	20.816558
101.025678	-3.017600	3.862600	-11.654000	21.593970	0.000448	20.795770
102.028654	-3.010200	3.862800	-11.627000	21.576315	0.000446	20.776680
103.029776	-2.979600	3.862700	-11.508000	21.593893	0.000446	20.796166
104.029778	-3.013300	3.863000	-11.638000	21.608210	0.000447	20.803381
105.030123	-2.986300	3.863500	-11.536000	21.620133	0.000449	20.792554
106.032398	-3.018800	3.862200	-11.658000	21.631229	0.000445	20.789433
107.032527	-3.017700	3.861200	-11.650000	21.641504	0.000446	20.790706
108.031505	-3.008000	3.861300	-11.613000	21.649311	0.000447	20.785717
109.034494	-3.016400	3.860300	-11.643000	21.633029	0.000449	20.799768
110.031671	-3.009700	3.861900	-11.622000	21.663925	0.000448	20.785169
111.031253	-3.011800	3.861700	-11.630000	21.658239	0.000450	20.781850
112.032572	-2.987600	3.861400	-11.535000	21.655920	0.000447	20.792805
113.033906	-2.994100	3.862200	-11.563000	21.672552	0.000449	20.783845
114.038115	-2.981600	3.861400	-11.512000	21.666046	0.000449	20.787292
115.035522	-3.010700	3.860900	-11.623000	21.670137	0.000451	20.796601
116.033723	-3.010200	3.861300	-11.622000	21.670141	0.000449	20.800398
117.034181	-3.013000	3.859200	-11.626000	21.697196	0.000448	20.789068
118.039713	-3.014300	3.859800	-11.634000	21.707796	0.000448	20.765537
119.035802	-2.984800	3.859900	-11.521000	21.728692	0.000449	20.792614
120.037169	-2.988400	3.860800	-11.537000	21.732783	0.000449	20.779638
121.038970	-3.013900	3.858800	-11.629000	21.733780	0.000448	20.787748
122.037643	-3.010800	3.859700	-11.620000	21.742604	0.000449	20.779511
123.037753	-3.004500	3.859400	-11.595000	21.756503	0.000450	20.785834
124.040178	-3.000100	3.857700	-11.573000	21.754208	0.000449	20.769313
125.038648	-3.030500	3.858200	-11.692000	21.772582	0.000450	20.782012
126.038077	-3.020500	3.857800	-11.652000	21.755806	0.000452	20.766170
127.041342	-2.986300	3.858400	-11.522000	21.802485	0.000451	20.789181
128.038038	-3.016100	3.859000	-11.638000	21.765059	0.000453	20.774482
129.042238	-2.988900	3.858100	-11.531000	21.779695	0.000452	20.780123
130.039013	-2.994100	3.858100	-11.551000	21.827444	0.000453	20.779075
131.041155	-2.973000	3.859100	-11.472000	21.829017	0.000453	20.768796
132.040795	-2.984600	3.859000	-11.517000	21.817598	0.000453	20.765427
133.042271	-2.996600	3.858000	-11.560000	21.835551	0.000454	20.754946
134.041185	-2.991900	3.858300	-11.542000	21.831040	0.000454	20.758966
135.041084	-2.993100	3.857600	-11.545000	21.852905	0.000454	20.781800
136.041998	-3.004800	3.857400	-11.589000	21.833836	0.000452	20.773145
137.041916	-3.010600	3.856100	-11.609000	21.845725	0.000454	20.748060
138.042121	-2.987400	3.857600	-11.524000	21.874325	0.000454	20.760565
139.046239	-2.982800	3.858300	-11.508000	21.898957	0.000456	20.750608
140.041205	-3.024000	3.855100	-11.657000	21.896688	0.000458	20.745965
141.043730	-3.011800	3.856700	-11.614000	21.907035	0.000455	20.744942
142.044266	-2.977000	3.857200	-11.482000	21.924116	0.000458	20.769627
143.042153	-2.997700	3.855700	-11.557000	21.939797	0.000458	20.783428
144.048016	-3.003100	3.856200	-11.579000	21.950940	0.000456	20.774192
145.049918	-2.992700	3.856200	-11.539000	21.964803	0.000457	20.785699
146.042617	-2.996700	3.855600	-11.553000	21.924339	0.000458	20.772695
147.044178	-2.987600	3.856100	-11.520000	21.965574	0.000457	20.772246
148.048198	-2.987700	3.855600	-11.519000	21.932310	0.000456	20.770717
149.045555	-3.001000	3.855400	-11.569000	21.926683	0.000457	20.792585
150.045729	-2.986700	3.855100	-11.513000	21.930472	0.000458	20.762239
151.048430	-3.017000	3.855000	-11.629000	21.993372	0.000458	20.750760
152.045018	-2.985800	3.853900	-11.507000	21.981180	0.000459	20.774118
153.045899	-2.970800	3.855300	-11.453000	22.001449	0.000459	20.760742
154.050490	-2.991500	3.854000	-11.528000	22.001071	0.000458	20.782175
155.046638	-2.976600	3.855400	-11.475000	21.982927	0.000459	20.753106
156.051608	-2.995600	3.854300	-11.545000	22.022314	0.000462	20.779734
157.054694	-3.000000	3.854500	-11.562000	22.001594	0.000460	20.747136
158.048676	-3.005300	3.853300	-11.579000	22.036672	0.000463	20.751906
159.049552	-3.018300	3.853000	-11.628000	22.045017	0.000460	20.759313
160.055833	-3.005200	3.852500	-11.577000	22.041278	0.000462	20.753672
161.046422	-3.009000	3.851900	-11.590000	22.092681	0.000462	20.738750
162.045702	-3.014200	3.852400	-11.611000	22.074704	0.000463	20.780498
163.054766	-3.033800	3.851500	-11.684000	22.069919	0.000464	20.764327
164.052335	-2.997800	3.853500	-11.551000	22.059046	0.000463	20.776202
165.052279	-3.015800	3.853900	-11.621000	22.057625	0.000464	20.754390
166.054576	-2.987900	3.851600	-11.507000	22.085714	0.000464	20.756906
167.050351	-3.011900	3.851800	-11.601000	22.078635	0.000464	20.761673
168.050261	-3.002900	3.851200	-11.564000	22.098852	0.000466	20.750144
169.053357	-2.983100	3.852300	-11.491000	22.097205	0.000464	20.759401
170.049944	-2.981900	3.852400	-11.487000	22.135864	0.000463	20.756379
171.052257	-3.007100	3.851200	-11.580000	22.126095	0.000465	20.784058
172.053249	-2.985600	3.852300	-11.499000	22.149326	0.000466	20.750417
173.051410	-3.002600	3.850700	-11.560000	22.148227	0.000463	20.758799
174.054431	-2.999200	3.851900	-11.551000	22.170384	0.000467	20.748265
175.060672	-2.997400	3.849400	-11.537000	22.154656	0.000466	20.747218
176.051471	-3.017600	3.849200	-11.615000	22.157943	0.000465	20.767579
177.054898	-2.993200	3.850800	-11.525000	22.193211	0.000465	20.780130
178.059852	-3.011700	3.849900	-11.594000	22.167938	0.000466	20.763361
179.054054	-2.985500	3.850400	-11.495000	22.173671	0.000466	20.764833
180.058142	-3.007900	3.848200	-11.572000	22.186729	0.000466	20.746613
181.060647	-3.008000	3.849500	-11.579000	22.187327	0.000467	20.745788
182.056513	-3.003100	3.849300	-11.559000	22.196650	0.000467	20.764132
183.059701	-2.958200	3.849800	-11.387000	22.210751	0.000468	20.760233
184.059186	-2.992900	3.849500	-11.520000	22.227280	0.000467	20.749755
185.058711	-3.025000	3.847800	-11.638000	22.213769	0.000466	20.758987
186.059566	-3.017900	3.847600	-11.610000	22.227799	0.000468	20.760707
187.065288	-2.997300	3.848100	-11.532000	22.231786	0.000467	20.771337
188.057722	-2.985900	3.849300	-11.492000	22.240434	0.000468	20.770512
189.060915	-3.005000	3.847200	-11.560000	22.274978	0.000467	20.742511
190.064636	-2.990100	3.848000	-11.505000	22.271338	0.000469	20.753566
191.059575	-3.022800	3.846200	-11.626000	22.278788	0.000471	20.779044
192.061269	-3.007500	3.847300	-11.570000	22.300418	0.000468	20.742381
193.066922	-2.999100	3.848000	-11.539000	22.285368	0.000469	20.749122
194.061400	-2.966600	3.848100	-11.414000	22.306924	0.000470	20.762172
195.062418	-2.985800	3.846300	-11.483000	22.314225	0.000469	20.741507
196.064566	-2.965900	3.846900	-11.409000	22.310985	0.000470	20.761496
197.062014	-2.985500	3.845400	-11.480000	22.320607	0.000471	20.751691
198.070510	-3.003900	3.847200	-11.555000	22.345325	0.000471	20.752735
199.069967	-2.997000	3.845900	-11.525000	22.359057	0.000471	20.776443
200.064133	-3.014500	3.846000	-11.593000	22.333163	0.000473	20.745296
201.073757	-3.017100	3.845300	-11.600000	22.360079	0.000471	20.748541
202.069682	-3.004600	3.844200	-11.550000	22.352898	0.000473	20.756050
203.064430	-3.010400	3.845100	-11.574000	22.374358	0.000472	20.752409
204.066771	-3.004200	3.846400	-11.554000	22.332212	0.000472	20.758096
205.068393	-3.024900	3.845200	-11.631000	22.380634	0.000473	20.753004
206.063942	-3.002900	3.845100	-11.545000	22.369418	0.000473	20.777335
207.067218	-3.010000	3.844300	-11.570000	22.387414	0.000473	20.752682
208.068295	-2.986900	3.844000	-11.481000	22.393266	0.000474	20.756645
209.065469	-2.994200	3.842800	-11.505000	22.418711	0.000473	20.741347
210.068305	-3.028700	3.843000	-11.638000	22.458507	0.000473	20.764132
211.068177	-2.977500	3.843200	-11.443000	22.449466	0.000475	20.762190
212.065724	-2.984600	3.843300	-11.470000	22.434184	0.000476	20.760162
213.067863	-2.988300	3.844400	-11.486000	22.440540	0.000474	20.776011
214.068173	-2.998800	3.842100	-11.520000	22.441364	0.000474	20.750757
215.066157	-3.018600	3.842000	-11.596000	22.437300	0.000477	20.759964
216.067790	-2.991000	3.843200	-11.494000	22.448038	0.000477	20.753648
217.069832	-3.029700	3.841500	-11.637000	22.413672	0.000477	20.765226
218.067004	-2.993600	3.842300	-11.501000	22.455211	0.000477	20.767944
219.068836	-2.982400	3.842100	-11.457000	22.430368	0.000478	20.769617
220.067935	-2.989700	3.842300	-11.487000	22.454041	0.000479	20.756815
221.067715	-2.988400	3.841600	-11.479000	22.434353	0.000480	20.766022
222.072733	-3.017800	3.841200	-11.591000	22.456331	0.000481	20.786609
223.071901	-3.014700	3.840500	-11.577000	22.482594	0.000483	20.765495
224.073076	-3.003000	3.841000	-11.534000	22.487004	0.000481	20.762324
225.069934	-3.017600	3.840200	-11.587000	22.491039	0.000480	20.761624
226.068808	-3.005800	3.840700	-11.544000	22.503101	0.000483	20.761376
227.069434	-3.005900	3.841200	-11.545000	22.486926	0.000481	20.754660
228.071526	-2.976800	3.842400	-11.437000	22.479499	0.000483	20.779939
229.071342	-2.974200	3.841400	-11.424000	22.537712	0.000480	20.768064
230.072471	-2.994000	3.839600	-11.495000	22.527890	0.000484	20.771029
231.074372	-2.993900	3.840300	-11.496000	22.520735	0.000482	20.745845
232.074328	-2.982000	3.840900	-11.453000	22.552282	0.000483	20.719118
233.070619	-2.992200	3.840700	-11.491000	22.543036	0.000482	20.758223
234.070384	-3.004400	3.839400	-11.533000	22.577448	0.000483	20.768506
235.072006	-2.997100	3.840700	-11.510000	22.579440	0.000482	20.764338
236.075288	-3.005900	3.838600	-11.536000	22.592095	0.000486	20.768004
237.072669	-2.986200	3.838900	-11.461000	22.622195	0.000485	20.762590
238.072912	-2.989700	3.840200	-11.480000	22.638690	0.000485	20.771999
239.072505	-3.008300	3.837900	-11.544000	22.652167	0.000486	20.768429
240.074797	-3.006300	3.838400	-11.539000	22.652146	0.000485	20.766037
241.074867	-2.981100	3.838000	-11.441000	22.667768	0.000486	20.761769
242.073986	-3.016700	3.838000	-11.577000	22.673098	0.000488	20.775644
243.074685	-2.998400	3.838400	-11.508000	22.645614	0.000485	20.784625
244.075467	-3.020400	3.837000	-11.588000	22.653213	0.000484	20.763786
245.078919	-2.984700	3.836800	-11.451000	22.639887	0.000487	20.795958
246.077056	-2.996300	3.836000	-11.493000	22.672477	0.000485	20.766486
247.074130	-2.977100	3.836600	-11.422000	22.646988	0.000487	20.776518
248.078866	-2.996500	3.836400	-11.495000	22.666595	0.000488	20.780509
249.077240	-3.002500	3.836000	-11.517000	22.682562	0.000490	20.774692
250.076690	-3.007100	3.836700	-11.536000	22.676857	0.000490	20.776090
251.079840	-3.004100	3.835600	-11.522000	22.718415	0.000489	20.783103
252.079618	-3.002100	3.836000	-11.515000	22.719209	0.000487	20.781528
253.076702	-2.986500	3.836400	-11.456000	22.718860	0.000488	20.770747
254.080596	-2.985900	3.836000	-11.453000	22.743523	0.000490	20.776486
255.079203	-3.004600	3.835500	-11.523000	22.736370	0.000491	20.778330
256.080032	-3.002300	3.834400	-11.511000	22.750097	0.000491	20.785916
257.083571	-3.004100	3.834200	-11.517000	22.743294	0.000491	20.781472
258.078615	-3.002100	3.834700	-11.511000	22.730093	0.000491	20.798120
259.080296	-3.007000	3.834000	-11.528000	22.736642	0.000492	20.778128
260.085071	-3.010900	3.834900	-11.546000	22.774708	0.000492	20.798715
261.079971	-2.992700	3.833900	-11.473000	22.747900	0.000492	20.780870
262.079751	-3.007200	3.832600	-11.524000	22.735071	0.000492	20.779873
263.080837	-3.011600	3.833200	-11.544000	22.742369	0.000494	20.791925
264.080358	-2.996400	3.833400	-11.485000	22.753305	0.000494	20.806673
265.083300	-2.989000	3.833300	-11.458000	22.780133	0.000493	20.791348
266.083445	-3.005800	3.832300	-11.518000	22.804598	0.000494	20.779345
267.082104	-2.982400	3.832500	-11.430000	22.789826	0.000494	20.779246
268.082201	-2.997400	3.833100	-11.488000	22.819295	0.000495	20.791224
269.084378	-3.021100	3.832000	-11.576000	22.816279	0.000495	20.798634
270.083874	-3.007100	3.832400	-11.524000	22.857584	0.000495	20.772208
271.082398	-2.998000	3.831100	-11.485000	22.865852	0.000497	20.799458
272.084905	-3.018700	3.829700	-11.558000	22.865754	0.000496	20.804575
